35	151
0	0.03	0.06	0.09	0.12	0.15	0.18	0.21	0.24	 	0.29	0.32	0.35	0.38	0.41	0.44	0.47	0.5	0.53	0.56	0.59	0.62	0.65	0.68	0.71	0.74	0.76	0.79	0.82	0.85	0.88	0.91	0.94	0.97	1																																																																																																																				
[n]
-120	-119.7613	-118.7322	-117.1318	-115.1793	-113.0937	-111.0942	-109.3761	-107.9015	-106.5	-105.0391	-103.5264	-102.0012	-100.5027	-99.053	-97.6096	-96.1552	-94.7018	-93.2571	-91.8001	-90.3489	-88.9608	-87.637	-86.2865	-84.7649	-83.1129	-81.579	-80.0983	-78.4583	-76.7074	-74.9293	-73.1981	-71.4897	-69.7728	-68.0581	-66.3444	-64.6301	-62.9154	-61.2007	-59.4863	-57.7719	-56.057	-54.3425	-52.6305	-50.9158	-49.1922	-47.4707	-45.7747	-44.0976	-42.3967	-40.6806	-38.9674	-37.26	-35.5528	-33.8438	-32.1353	-30.4284	-28.717	-27.0014	-25.2846	-23.5686	-21.8542	-20.1419	-18.4318	-16.7221	-15.0133	-13.307	-11.5975	-9.8895	-8.2025	-6.5109	-4.8197	-3.131	-1.4378	0.2441	1.8897	3.532	5.1809	6.8355	8.4884	10.1254	11.7383	13.3398	14.9466	16.5602	18.1686	19.7758	21.4306	23.1074	24.7774	26.4408	28.0983	29.7507	31.3991	33.0458	34.6929	36.3414	37.991	39.6379	41.2776	42.9099	44.5374	46.1625	47.7878	49.4159	51.049	52.6807	54.3044	55.9309	57.5696	59.2047	60.8083	62.3828	63.9674	65.5619	67.1569	68.7502	70.3465	71.9491	73.5538	75.1546	76.7518	78.3518	79.9517	81.511	83.0424	84.5748	86.1094	87.6451	89.1792	90.7084	92.232	93.7562	95.2808	96.803	98.3217	99.8404	101.3628	102.8875	104.4093	105.9226	107.4216	108.9009	110.3549	111.7777	113.1625	114.5019	115.8299	117.3672	118.9624	120
-120	-118.0177	-116.5539	-114.9995	-113.3119	-111.634	-110.1034	-108.6505	-107.1203	-105.502	-103.8777	-102.2423	-100.5579	-98.8236	-97.0843	-95.3215	-93.4691	-91.5927	-89.7968	-88.0176	-86.1139	-84.2051	-82.1375	-79.8069	-77.1776	-74.3302	-71.5941	-68.8882	-66.4621	-62.8805	-59.3152	-56.487	-54.2688	-51.9934	-49.6703	-47.2997	-45.194	-43.1249	-41.1029	-39.1573	-37.3429	-35.6636	-34.0675	-32.5131	-30.9914	-29.518	-28.0932	-26.7056	-25.343	-23.9979	-22.6679	-21.3545	-20.0595	-18.7843	-17.5306	-16.3001	-15.0927	-13.9043	-12.7321	-11.5754	-10.4342	-9.3081	-8.1955	-7.095	-6.0054	-4.9278	-3.8651	-2.8151	-1.7717	-0.7313	0.3068	1.337	2.353	3.3583	4.3595	5.3564	6.346	7.3257	8.2931	9.2495	10.1976	11.1407	12.0826	13.0267	13.9756	14.9268	15.8736	16.815	17.7556	18.7001	19.6528	20.6153	21.5847	22.5608	23.5484	24.5516	25.5725	26.6116	27.6684	28.7421	29.832	30.9379	32.0592	33.188	34.3146	35.4467	36.5914	37.7403	38.8921	40.056	41.2292	42.4061	43.5963	44.8252	46.1249	47.455	48.7746	50.1069	51.5121	53.0865	54.8878	56.76	58.6094	60.6456	63.1103	65.7291	68.5578	71.8636	75.2915	77.7624	79.162	80.2443	82.3818	84.4953	87.6343	89.4902	91.042	93.563	96.1168	98.4354	100.6698	102.9546	105.2046	107.3268	109.322	111.2596	113.1559	114.896	116.398	118.0098	120
-120	-118.5533	-116.9285	-115.7923	-114.6197	-113.2853	-111.9647	-110.7725	-109.6333	-108.4463	-107.2089	-105.9868	-104.8228	-103.6767	-102.4907	-101.2315	-99.9186	-98.5773	-97.2051	-95.7659	-94.2745	-92.8263	-91.493	-90.2641	-89.1161	-88.025	-86.9678	-85.9285	-84.8969	-83.8628	-82.8163	-81.7641	-80.7471	-79.8097	-78.9956	-78.2973	-77.6248	-76.7357	-76.0624	-75.8522	-75.9058	-75.595	-74.4195	-72.771	-70.9187	-69.0687	-67.4219	-66.0332	-64.7921	-63.5794	-62.2755	-60.7611	-58.9251	-56.7794	-54.4305	-51.9876	-49.559	-47.2076	-44.9151	-42.6547	-40.3999	-38.1279	-35.8377	-33.5363	-31.2304	-28.9266	-26.6272	-24.3308	-22.0359	-19.7411	-17.4456	-15.1497	-12.8544	-10.5606	-8.2688	-5.9781	-3.6868	-1.3928	0.9043	3.2036	5.5035	7.8024	10.0986	12.3978	14.7007	16.968	19.2462	21.5449	23.8222	26.0907	28.3667	30.6553	32.9555	35.2517	37.5185	39.7486	42.0033	44.2769	46.474	48.6505	50.9327	53.167	55.3824	57.6	59.8229	62.0466	64.2491	66.4042	68.4561	70.3345	72.1472	74.0805	75.9448	77.6516	79.2726	80.8469	82.1714	83.0482	83.4902	83.3041	82.9636	82.8528	83.2022	83.9546	84.723	85.6751	87.0552	88.564	89.6876	90.0035	90.5482	92.3614	94.5686	96.3933	97.8677	99.1691	100.4739	101.8844	103.3634	104.8585	106.3179	107.73	109.1436	110.6121	112.168	113.7131	115.0992	116.1947	117.1652	118.4367	120
-120	-116.7549	-115.3914	-114.2409	-113.0038	-111.7417	-110.4799	-109.1046	-107.5663	-105.9819	-104.4742	-103.0087	-101.4829	-99.8698	-98.1982	-96.4644	-94.6253	-92.7438	-90.9585	-89.3499	-87.9127	-86.3981	-84.8956	-83.4315	-81.9251	-80.8309	-79.981	-79.2734	-79.3997	-76.7973	-74.0175	-71.6647	-69.9146	-68.0663	-65.9595	-63.4746	-61.0517	-58.5009	-55.9862	-53.6217	-51.4356	-49.4033	-47.4605	-45.557	-43.6816	-41.8587	-40.0902	-38.3629	-36.6626	-34.9812	-33.316	-31.6684	-30.0413	-28.4385	-26.8636	-25.3163	-23.7959	-22.3042	-20.8398	-19.3976	-17.9739	-16.5657	-15.1723	-13.7926	-12.4259	-11.0706	-9.7249	-8.3869	-7.0543	-5.7261	-4.4026	-3.093	-1.8083	-0.5437	0.7104	1.9586	3.2033	4.4432	5.676	6.9014	8.1199	9.3337	10.5454	11.7588	12.9772	14.1963	15.4056	16.605	17.8037	19.0067	20.2133	21.4225	22.633	23.8473	25.0749	26.3238	27.5962	28.8931	30.2129	31.555	32.9203	34.3095	35.7223	37.1427	38.55	39.9509	41.3576	42.7721	44.1968	45.6344	47.0713	48.4938	49.9232	51.4101	53.0173	54.6791	56.3178	57.946	59.6152	61.4598	63.622	65.938	68.2111	70.611	73.3343	76.0185	79.0372	82.066	84.8206	86.0883	85.3345	84.4666	85.2716	86.7275	89.393	90.7035	91.958	94.831	97.4892	99.5914	101.5756	103.6921	105.7903	107.7338	109.5739	111.4467	113.3561	115.0906	116.4264	117.6934	120
-120	-116.6328	-115.0833	-113.8113	-112.5327	-111.2291	-109.855	-108.2985	-106.5603	-104.7798	-103.0882	-101.5015	-99.9442	-98.3298	-96.6322	-94.8741	-93.0604	-91.2314	-89.4647	-87.8381	-86.3929	-84.8294	-83.3071	-81.9545	-80.8129	-80.4634	-80.1525	-79.8276	-80.1128	-78.5697	-76.904	-74.7931	-73.0771	-71.3311	-69.454	-67.1914	-64.8747	-62.3024	-59.7394	-57.347	-55.1174	-53.0116	-50.9748	-48.9656	-46.9795	-45.0473	-43.1717	-41.3377	-39.5299	-37.7394	-35.9632	-34.2027	-32.4603	-30.7404	-29.0491	-27.3886	-25.7603	-24.1666	-22.6053	-21.0702	-19.5547	-18.0535	-16.5648	-15.0884	-13.6252	-12.1747	-10.7344	-9.3013	-7.8725	-6.4474	-5.028	-3.6265	-2.257	-0.9152	0.4097	1.7267	3.0425	4.3573	5.6686	6.9751	8.2765	9.5741	10.8703	12.1676	13.4686	14.7693	16.0609	17.3425	18.6214	19.9011	21.181	22.461	23.7428	25.0307	26.3338	27.6595	29.0097	30.3845	31.7815	33.1998	34.6416	36.1099	37.6061	39.1097	40.5926	42.0626	43.5362	45.0203	46.5152	48.015	49.506	50.9805	52.4666	54.016	55.6865	57.4207	59.1391	60.8244	62.4994	64.3245	66.5282	68.9667	71.3444	73.7586	76.3967	78.9517	81.8138	84.2631	86.2089	86.9001	85.9646	85.2215	85.9372	87.4874	89.6911	91.4731	93.1538	95.8075	98.2341	100.2537	102.1826	104.1839	106.1485	107.9738	109.7024	111.4465	113.2226	114.8939	116.3101	117.6906	120
-120	-116.7696	-114.9995	-113.5147	-112.098	-110.6521	-109.0728	-107.2694	-105.2916	-103.28	-101.3609	-99.6085	-97.9873	-96.3491	-94.6093	-92.8188	-91.0348	-89.2708	-87.5266	-85.8512	-84.3163	-82.6287	-80.9876	-79.6195	-78.7137	-78.9374	-78.9765	-78.7838	-78.8299	-78.3846	-77.9191	-76.0606	-74.3424	-72.7145	-71.0922	-69.1343	-67.0234	-64.5519	-62.057	-59.7335	-57.5373	-55.4176	-53.3346	-51.2616	-49.2045	-47.2005	-45.254	-43.3495	-41.4707	-39.608	-37.7581	-35.9222	-34.1012	-32.2991	-30.5233	-28.7786	-27.068	-25.3937	-23.7536	-22.1418	-20.5505	-18.9726	-17.4057	-15.85	-14.3089	-12.7832	-11.2701	-9.7654	-8.2642	-6.7656	-5.2729	-3.8008	-2.3662	-0.9653	0.4136	1.7827	3.1527	4.5245	5.8956	7.2644	8.6298	9.9929	11.3553	12.7187	14.0842	15.4487	16.8061	18.155	19.4988	20.8393	22.1764	23.5115	24.8493	26.1959	27.5593	28.9457	30.3565	31.7911	33.2459	34.7202	36.2172	37.7419	39.2979	40.8605	42.395	43.9112	45.43	46.9619	48.5054	50.0465	51.5741	53.0871	54.6167	56.2084	57.9061	59.6693	61.428	63.1348	64.7821	66.5571	68.7782	71.3087	73.7423	76.1123	78.6091	81.0086	83.6295	85.4245	86.4733	86.6312	85.8047	85.524	86.3317	88.0572	89.7527	92.1122	94.311	96.6222	98.7497	100.7153	102.6405	104.5614	106.4244	108.1695	109.815	111.4317	113.0569	114.6602	116.2022	117.7673	120
-120	-118.5939	-116.7187	-115.0156	-113.4218	-111.8742	-110.3099	-108.6662	-106.9159	-105.1057	-103.2912	-101.528	-99.8718	-98.3772	-97.0382	-95.7539	-94.4172	-92.9932	-91.54	-90.121	-88.7668	-87.4614	-86.1856	-84.9267	-83.7145	-82.5865	-81.4411	-80.2112	-79.14	-78.2517	-77.4527	-76.8879	-76.749	-76.9586	-77.3017	-77.562	-77.5973	-77.5005	-77.4034	-77.3955	-77.2717	-77.0785	-77.175	-77.2407	-77.8145	-78.098	-77.6918	-76.6965	-75.5643	-74.5536	-73.6229	-72.6692	-71.5476	-70.1109	-68.2122	-65.8618	-63.445	-61.1285	-58.7218	-56.1573	-53.4726	-50.708	-47.901	-45.0679	-42.2151	-39.3484	-36.4645	-33.5478	-30.606	-27.6588	-24.7166	-21.78	-18.8267	-15.857	-12.9008	-9.9493	-6.9831	-4.0219	-1.1131	1.7475	4.6393	7.5821	10.5556	13.5386	16.5103	19.453	22.3666	25.2568	28.1295	30.9902	33.8416	36.6796	39.5292	42.3837	45.1354	47.8138	50.5374	53.2263	55.8199	58.3878	61.0064	63.6251	66.0404	68.2266	70.6922	73.427	75.9816	78.1387	79.9635	81.5622	83.0615	84.5803	85.7893	86.2213	86.5366	86.5957	86.4828	86.361	85.8717	85.5853	85.6141	85.7423	85.8602	86.4525	87.5286	88.4489	88.9447	89.5923	90.8399	92.5057	94.2921	95.9168	97.3111	98.5649	99.7713	100.9984	102.2469	103.5065	104.7672	106.0187	107.2509	108.4582	109.6498	110.8378	112.0342	113.2509	114.5001	115.7937	117.1438	118.5623	120
-120	-117.5348	-115.5977	-113.8039	-112.0829	-110.2653	-108.2307	-105.994	-103.7037	-101.4563	-99.3186	-97.3926	-95.6771	-93.9848	-92.1875	-90.3637	-88.6264	-86.9545	-85.2502	-83.5073	-81.8005	-79.9225	-78.0742	-76.5792	-75.7817	-76.4054	-76.8451	-76.6895	-76.181	-76.9945	-77.9662	-76.6634	-75.1322	-74.0553	-72.8434	-71.4106	-69.7592	-67.763	-65.6868	-63.702	-61.7355	-59.7291	-57.6752	-55.5838	-53.4855	-51.4267	-49.4216	-47.4617	-45.5316	-43.6222	-41.7298	-39.8536	-37.9889	-36.1327	-34.2868	-32.4518	-30.6289	-28.8206	-27.0303	-25.2609	-23.5116	-21.7798	-20.065	-18.3688	-16.6959	-15.0481	-13.4231	-11.8138	-10.2097	-8.6067	-7.006	-5.4221	-3.8722	-2.3527	-0.8524	0.6393	2.1309	3.6233	5.1145	6.6044	8.0935	9.583	11.0741	12.5666	14.0598	15.5529	17.0449	18.5338	20.0166	21.4912	22.9568	24.4158	25.8757	27.3442	28.8285	30.3339	31.8617	33.4112	34.9789	36.5636	38.1687	39.7997	41.4616	43.126	44.7539	46.3597	47.9702	49.5984	51.2445	52.8971	54.5498	56.2029	57.8688	59.5593	61.2807	63.0361	64.8051	66.5306	68.1799	69.9893	72.3795	75.1102	77.5851	79.8605	82.1777	84.4371	86.5888	87.5311	87.2284	86.5248	85.8138	86.2127	87.102	88.7962	89.6636	92.2962	94.9114	96.6204	98.3312	100.3031	102.3808	104.4038	106.362	108.226	109.9394	111.5038	113.0071	114.5711	116.2997	118.0727	120
-120	-118.027	-116.1854	-114.3604	-112.5308	-110.5455	-108.3284	-105.968	-103.6567	-101.4568	-99.3846	-97.4989	-95.7801	-94.0737	-92.2769	-90.4626	-88.7382	-87.0805	-85.3911	-83.6544	-81.923	-80.0378	-78.1742	-76.6407	-75.7559	-76.2257	-76.7833	-76.6691	-76.1042	-76.9309	-77.9575	-76.9391	-75.6344	-74.9867	-73.8979	-72.6144	-71.1494	-69.4567	-67.6666	-65.8965	-64.085	-62.1801	-60.1851	-58.1264	-56.0462	-53.9933	-51.9889	-50.0316	-48.1079	-46.2095	-44.3327	-42.4758	-40.6303	-38.788	-36.9436	-35.0914	-33.2284	-31.3583	-29.4895	-27.6327	-25.7946	-23.9789	-22.1875	-20.4226	-18.6874	-16.983	-15.3074	-13.6521	-12.0046	-10.3576	-8.7097	-7.0722	-5.4601	-3.8694	-2.2899	-0.7162	0.8549	2.423	3.9867	5.5476	7.108	8.6696	10.2336	11.7996	13.3669	14.9353	16.5057	18.0761	19.6421	21.1999	22.7471	24.2849	25.8203	27.3608	28.9143	30.4865	32.0797	33.6938	35.3265	36.9766	38.646	40.3388	42.0585	43.7779	45.4607	47.1233	48.7934	50.4822	52.1937	53.9268	55.6767	57.4366	59.199	60.953	62.6878	64.4272	66.1853	67.931	69.6413	71.562	74.1029	76.9305	79.4049	81.6622	83.9727	86.2684	88.2517	89.098	88.465	87.4291	86.532	86.8825	87.6321	89.0362	89.661	91.8711	94.2933	95.8668	97.5392	99.5563	101.746	103.9223	106.0532	108.0904	109.9421	111.5948	113.1574	114.7652	116.5202	118.2578	120
-120	-118.5061	-116.8088	-114.9913	-113.0716	-110.9414	-108.5844	-106.1592	-103.8916	-101.8079	-99.8713	-98.0776	-96.3773	-94.667	-92.8858	-91.0937	-89.3785	-87.7219	-86.0458	-84.335	-82.6119	-80.763	-78.931	-77.3778	-76.3569	-76.5406	-77.1612	-77.1109	-76.6101	-77.1925	-77.9958	-77.2345	-76.195	-75.9845	-74.9796	-73.7851	-72.4714	-71.0622	-69.5462	-67.9772	-66.3155	-64.5195	-62.5984	-60.5893	-58.5435	-56.5113	-54.521	-52.5778	-50.67	-48.7904	-46.9357	-45.1035	-43.2829	-41.4605	-39.6241	-37.761	-35.8634	-33.9365	-31.9931	-30.0522	-28.1281	-26.2312	-24.3662	-22.5353	-20.7396	-18.979	-17.2515	-15.5482	-13.8548	-12.1615	-10.4637	-8.7695	-7.0909	-5.4236	-3.7584	-2.0956	-0.4383	1.2118	2.854	4.4911	6.1273	7.7647	9.4048	11.0474	12.692	14.3393	15.991	17.6454	19.2974	20.9422	22.5754	24.1966	25.8112	27.4264	29.0506	30.6908	32.35	34.0294	35.728	37.445	39.1804	40.9361	42.7136	44.4881	46.2278	47.9511	49.6854	51.4375	53.2151	55.0289	56.8753	58.7391	60.5923	62.4036	64.1494	65.8712	67.6172	69.3932	71.1933	73.2489	75.9143	78.7857	81.2391	83.4842	85.7952	88.1426	89.9928	90.8725	90.0692	88.7363	87.558	87.6672	88.2003	89.2274	89.7182	91.3749	93.5142	95.0774	96.8026	98.8627	101.1279	103.4334	105.7204	107.918	109.9106	111.6795	113.344	115.0216	116.7794	118.4351	120
-120	-118.9079	-117.3442	-115.5342	-113.5315	-111.2853	-108.838	-106.4017	-104.2194	-102.2843	-100.5124	-98.8339	-97.1664	-95.4624	-93.7079	-91.9463	-90.2395	-88.578	-86.9153	-85.243	-83.5523	-81.768	-80.0013	-78.4457	-77.2755	-77.1247	-77.7505	-77.7861	-77.4362	-77.6493	-78.0935	-77.5371	-76.7588	-76.9164	-75.9703	-74.8201	-73.6206	-72.4262	-71.1233	-69.7085	-68.1668	-66.4702	-64.6268	-62.676	-60.6735	-58.6715	-56.7036	-54.7791	-52.8879	-51.0233	-49.1828	-47.3648	-45.5574	-43.7445	-41.9085	-40.0311	-38.1007	-36.1231	-34.115	-32.1007	-30.1011	-28.1323	-26.2007	-24.3085	-22.4541	-20.6358	-18.8519	-17.0936	-15.3462	-13.5984	-11.8429	-10.0855	-8.3357	-6.5887	-4.8367	-3.0841	-1.3389	0.3959	2.1199	3.8366	5.551	7.2657	8.9824	10.7017	12.4238	14.1498	15.8815	17.6175	19.353	21.0825	22.7999	24.5029	26.1954	27.8834	29.5762	31.2819	33.0042	34.7457	36.507	38.2877	40.0859	41.9012	43.7332	45.5602	47.3555	49.1395	50.938	52.7512	54.5878	56.4688	58.3914	60.3334	62.2514	64.1007	65.8516	67.5583	69.298	71.1162	73.024	75.2051	77.9109	80.7318	83.138	85.3641	87.6422	90.0102	91.7524	92.7158	91.8394	90.2197	88.7298	88.4705	88.7514	89.3974	89.8543	91.0306	92.946	94.6304	96.4778	98.5549	100.812	103.1486	105.4942	107.7678	109.8496	111.7223	113.4995	115.2589	117.0144	118.5825	120
-120	-119.1679	-117.6676	-115.8266	-113.7369	-111.4093	-108.9283	-106.5296	-104.4507	-102.6605	-101.0419	-99.4723	-97.8447	-96.1579	-94.4369	-92.7097	-91.0132	-89.3481	-87.7006	-86.0725	-84.4291	-82.7227	-81.0416	-79.4996	-78.2023	-77.7524	-78.3227	-78.466	-78.3199	-78.1709	-78.2633	-77.8346	-77.2706	-77.6503	-76.7518	-75.6169	-74.4924	-73.3953	-72.1956	-70.8549	-69.3788	-67.755	-65.9821	-64.0897	-62.132	-60.1645	-58.2222	-56.3147	-54.4317	-52.5666	-50.7182	-48.8874	-47.0644	-45.2338	-43.3767	-41.4722	-39.5069	-37.4864	-35.4286	-33.3595	-31.3029	-29.2776	-27.2907	-25.3436	-23.4321	-21.553	-19.7049	-17.8799	-16.0647	-14.2482	-12.4224	-10.5919	-8.7654	-6.9385	-5.1036	-3.2666	-1.4371	0.3812	2.1879	3.9857	5.7787	7.5698	9.3611	11.1544	12.9507	14.7515	16.5578	18.3684	20.1794	21.9852	23.7787	25.5562	27.3197	29.0745	30.8302	32.5952	34.3742	36.1707	37.9871	39.8234	41.6763	43.5438	45.4238	47.2977	49.1442	50.9849	52.8431	54.7101	56.5912	58.512	60.4706	62.4423	64.3791	66.2339	67.9803	69.6787	71.4248	73.2984	75.3214	77.5852	80.1898	82.8248	85.1518	87.3396	89.5103	91.8215	93.4705	94.4893	93.5738	91.6529	89.8849	89.1959	89.2304	89.5739	90.0888	91.0606	92.9604	94.9041	96.9217	98.9657	101.0834	103.2793	105.5054	107.6987	109.7641	111.6878	113.5563	115.3957	117.1625	118.6779	120
-120	-119.8417	-118.9588	-117.5026	-115.6242	-113.4745	-111.2048	-108.9661	-106.9095	-105.1511	-103.6552	-102.3449	-101.1436	-99.9745	-98.7645	-97.4921	-96.1748	-94.8308	-93.4785	-92.1363	-90.8224	-89.5551	-88.3471	-87.1875	-86.0598	-84.9539	-83.8798	-82.8507	-81.8742	-80.9562	-80.0976	-79.3156	-78.7502	-78.4533	-78.1959	-78.7895	-78.7386	-78.5646	-78.7754	-78.9519	-79.0448	-79.0393	-78.9284	-78.7375	-78.631	-78.797	-78.1518	-78.2625	-77.378	-77.8194	-78.1194	-77.7184	-76.927	-75.969	-74.8795	-73.6759	-72.3463	-70.8367	-69.0897	-67.0504	-64.726	-62.1868	-59.5062	-56.7444	-53.9215	-51.0508	-48.1418	-45.157	-42.0232	-38.6693	-35.1054	-31.4354	-27.7627	-24.1228	-20.5056	-16.8973	-13.2661	-9.5739	-5.7993	-1.971	1.8822	5.7634	9.6602	13.5579	17.4542	21.3518	25.2326	29.0446	32.7395	36.3275	39.8505	43.3432	46.7973	50.189	53.5046	56.7754	60.0446	63.3304	66.4995	69.365	71.9404	74.564	77.4796	80.3693	82.8896	85.2577	87.5637	89.5343	91.0552	92.3447	93.8691	94.8423	95.5759	96.1034	95.6984	95.3609	94.2664	93.1449	91.9441	91.082	90.2815	89.7243	90.0021	89.6367	89.5998	89.7719	90.0695	90.3993	90.8342	91.7407	93.2162	94.9778	96.7177	98.2058	99.48	100.6363	101.7695	102.9334	104.134	105.3743	106.6574	107.9865	109.3648	110.7953	112.2812	113.8101	115.3263	116.7666	118.0678	119.1667	120
-120	-119.2677	-117.7891	-115.9808	-113.9829	-111.9214	-109.8678	-107.8885	-106.0697	-104.4824	-103.0987	-101.8664	-100.7256	-99.6117	-98.4727	-97.2917	-96.0781	-94.8449	-93.6142	-92.3843	-91.1716	-89.9962	-88.8696	-87.7924	-86.7513	-85.7314	-84.7336	-83.7716	-82.8513	-81.9747	-81.1268	-80.3069	-79.574	-78.9413	-78.5581	-78.3385	-78.6214	-78.6703	-78.6176	-78.85	-79.0102	-79.1479	-79.2741	-79.2787	-79.1333	-78.8997	-79.0699	-78.696	-78.5402	-78.0271	-77.8604	-78.178	-77.9604	-77.3631	-76.4766	-75.4111	-74.0611	-72.5117	-70.8796	-69.0713	-67.0596	-64.7871	-62.2645	-59.5486	-56.6885	-53.6879	-50.5618	-47.3367	-44.0085	-40.5233	-36.8302	-32.9467	-28.9519	-24.9037	-20.7932	-16.6183	-12.3676	-8.0308	-3.5713	0.921	5.5055	10.1793	14.8377	19.4944	24.1373	28.6837	33.1269	37.4308	41.5071	45.428	49.2513	52.9886	56.635	60.2048	63.7038	67.0709	70.1769	72.9874	75.6285	78.4625	81.6164	84.3448	86.216	88.1278	90.2983	92.0031	93.144	94.2341	95.5078	96.3778	96.9455	97.3076	97.0885	96.6345	95.1473	93.9495	92.8191	91.8873	91.1051	90.1468	90.4227	90.0315	89.7714	89.9623	90.3031	90.6743	91.2818	92.34	93.9587	96.0315	98.151	99.9681	101.3737	102.4494	103.3111	104.0634	104.7752	105.4829	106.2178	107.012	107.8979	108.9099	110.0668	111.3528	112.7366	114.1629	115.5645	116.8786	118.0507	119.0767	120
-120	-119.1074	-117.4819	-115.5588	-113.5163	-111.5043	-109.5852	-107.7749	-106.103	-104.5997	-103.2464	-102.0098	-100.8493	-99.7199	-98.585	-97.4229	-96.2271	-95.0058	-93.7825	-92.5571	-91.3471	-90.1727	-89.0436	-87.9607	-86.9146	-85.8947	-84.9032	-83.9463	-83.0314	-82.1777	-81.3401	-80.5139	-79.8177	-79.1418	-78.6737	-78.5634	-78.5734	-78.5149	-78.6051	-78.8701	-78.9397	-79.0548	-79.2429	-79.3432	-79.254	-79.0775	-79.2669	-79.0827	-78.8054	-78.3859	-78.1595	-78.1577	-77.8495	-77.3269	-76.5175	-75.4401	-73.9012	-72.1343	-70.3685	-68.4744	-66.4544	-64.2478	-61.8162	-59.1815	-56.3519	-53.3162	-50.0936	-46.7245	-43.2418	-39.645	-35.9286	-32.0933	-28.1528	-24.1102	-19.9363	-15.6262	-11.1942	-6.6793	-2.0902	2.4942	7.2149	12.0453	16.8381	21.6153	26.3645	31.0037	35.5465	39.9636	44.1438	48.1486	52.0455	55.8626	59.6041	63.2693	66.7967	70.0505	72.9798	75.6945	78.3667	81.3005	84.5608	87.1421	88.4815	90.0219	92.1571	93.7436	94.6459	95.5458	96.6195	97.4882	97.9205	98.1598	98.1812	97.6192	95.806	94.5955	93.5863	92.6503	91.9241	90.6922	90.9702	90.4483	90.1267	90.355	90.724	91.1042	91.9681	93.5237	95.6685	98.1934	100.6098	102.5613	103.9896	104.9873	105.6771	106.1686	106.5475	106.8786	107.2196	107.6295	108.1687	108.9028	109.8698	111.0424	112.3672	113.7798	115.2118	116.5974	117.8752	119.0128	120
-120	-119.7135	-118.6027	-116.9284	-114.9515	-112.9329	-111.0712	-109.3771	-107.8263	-106.3945	-105.0573	-103.7903	-102.5693	-101.3697	-100.1673	-98.9378	-97.6601	-96.3409	-94.9995	-93.6554	-92.3282	-91.0373	-89.7926	-88.5927	-87.4355	-86.3189	-85.2408	-84.2085	-83.2713	-82.3547	-81.4541	-80.7259	-79.9729	-79.4159	-79.3057	-78.9773	-78.8197	-78.9287	-79.0588	-78.9784	-79.0863	-79.2839	-79.3686	-79.2506	-79.2358	-79.4531	-79.275	-78.9237	-78.6445	-78.4213	-78.1786	-77.7947	-77.2791	-76.5118	-75.2356	-73.5757	-71.954	-70.2828	-68.463	-66.5331	-64.483	-62.2673	-59.8397	-57.1703	-54.2848	-51.2204	-48.0148	-44.7054	-41.3295	-37.9192	-34.4684	-30.9557	-27.3597	-23.6587	-19.8314	-15.8732	-11.8261	-7.7402	-3.6657	0.398	4.5748	8.8519	13.1195	17.3477	21.5548	25.7442	29.8981	33.9967	38.0183	41.9414	45.7668	49.5193	53.2234	56.8891	60.5198	64.094	67.4942	70.5963	73.4295	76.1045	78.7562	81.6233	84.8528	87.6499	89.0395	90.351	92.5217	94.3329	95.2736	96.0989	97.047	97.9923	98.4402	98.651	98.9201	98.3896	96.5802	95.5302	94.6874	93.8232	93.0242	91.6751	91.9688	91.096	90.9326	91.0484	91.3224	91.7399	93.1131	95.3683	98.045	100.6825	102.8565	104.4766	105.6323	106.4148	106.9154	107.2253	107.4357	107.6379	107.923	108.3824	109.1062	110.1262	111.3873	112.8271	114.3832	115.9932	117.5918	119.0183	120
-120	-119.5023	-118.4218	-117.1353	-115.7652	-114.4359	-113.1758	-111.9561	-110.7523	-109.5554	-108.3667	-107.1868	-106.0121	-104.8361	-103.6544	-102.4508	-101.2102	-99.9354	-98.6493	-97.3513	-96.0577	-94.7848	-93.5364	-92.3139	-91.1133	-89.9348	-88.7921	-87.69	-86.6288	-85.6299	-84.6457	-83.6699	-82.8367	-81.988	-81.2517	-80.9136	-80.383	-79.9325	-79.7095	-79.5725	-79.3786	-79.3005	-79.4288	-79.5002	-79.3645	-79.3299	-79.4574	-79.4972	-79.2362	-79.0692	-78.9429	-78.75	-78.5475	-78.137	-77.7745	-76.6779	-75.3105	-74.2057	-73.0169	-71.5469	-69.7893	-67.9301	-66.0116	-63.7991	-61.2086	-58.3553	-55.3507	-52.2064	-48.9265	-45.519	-42.0217	-38.4353	-34.7283	-30.8707	-26.8432	-22.6521	-18.3093	-13.8553	-9.2899	-4.6451	0.2246	5.2441	10.2376	15.2119	20.2126	25.1213	29.9703	34.8017	39.4444	43.8634	48.1334	52.3374	56.4991	60.5728	64.4647	68.0565	71.3528	74.3927	77.2573	80.3333	83.6535	86.3568	88.0795	90.0295	92.4507	94.2187	95.2506	96.1699	97.1021	98.0236	98.5309	98.8728	99.311	99.0558	97.8285	97.1552	96.6	95.9214	95.0023	93.6773	93.563	92.7238	92.2717	91.9738	91.8181	91.9319	92.5822	94.154	96.2677	98.3944	100.2792	101.8187	103.0871	104.1177	104.9456	105.6062	106.1329	106.5703	106.9803	107.4268	107.9752	108.6945	109.6264	110.7464	112.0085	113.3688	114.7901	116.2316	117.6263	118.8967	120
-120	-120.0103	-119.5305	-118.8918	-118.1325	-117.3308	-116.4974	-115.6161	-114.6721	-113.6628	-112.5965	-111.4828	-110.3284	-109.1376	-107.9165	-106.6611	-105.368	-104.0412	-102.7009	-101.3424	-99.979	-98.6242	-97.2803	-95.9501	-94.6319	-93.3286	-92.0592	-90.8347	-89.6512	-88.5128	-87.403	-86.3208	-85.3417	-84.3815	-83.4878	-82.8298	-82.1032	-81.4244	-80.7911	-80.2783	-79.9509	-79.7435	-79.7766	-79.7225	-79.4683	-79.4529	-79.4759	-79.4935	-79.3819	-79.3632	-79.4017	-79.3761	-79.3425	-78.9342	-78.8581	-77.756	-76.733	-76.4158	-75.852	-74.8271	-73.3033	-71.6771	-70.1075	-68.1775	-65.7654	-63.1073	-60.3876	-57.5793	-54.6257	-51.4878	-48.1936	-44.7608	-41.186	-37.4671	-33.612	-29.6373	-25.5269	-21.2738	-16.8272	-12.1969	-7.3115	-2.2566	2.8067	7.8624	13.0051	18.0847	23.1248	28.2197	33.1808	37.9052	42.4521	46.9244	51.3511	55.6771	59.8586	63.8611	67.6534	71.0708	74.0725	77.1793	80.4734	83.4489	86.0018	88.6183	91.2731	93.2871	94.6517	95.7649	96.7613	97.709	98.4064	98.9719	99.5338	99.6598	99.2565	99.0506	98.765	98.2763	97.0988	95.9448	95.4773	94.4799	93.9357	93.1049	92.4516	92.3193	92.5124	93.5614	95.0761	96.3865	97.5212	98.5791	99.6867	100.817	101.9266	102.9858	103.9685	104.8733	105.7381	106.604	107.5116	108.5027	109.6027	110.8022	112.0824	113.4238	114.8136	116.2319	117.6137	118.8756	120
-120	-120.2866	-120.3961	-120.3376	-120.1202	-119.7528	-119.2447	-118.6048	-117.8422	-116.9659	-115.9851	-114.9087	-113.7459	-112.5057	-111.1972	-109.8294	-108.4113	-106.9521	-105.4609	-103.9466	-102.4183	-100.8851	-99.3561	-97.8402	-96.3467	-94.8845	-93.4627	-92.0903	-90.7765	-89.5302	-88.3606	-87.2706	-86.233	-85.2154	-84.2414	-83.3717	-82.5323	-81.536	-80.7837	-80.4069	-80.1316	-80.1247	-79.8437	-79.5331	-79.5789	-79.4454	-79.4677	-79.5106	-79.6694	-79.8455	-79.9628	-79.8796	-79.4023	-79.5239	-77.8883	-77.9556	-78.1033	-77.8902	-76.9682	-75.5466	-74.1649	-72.8544	-71.0698	-68.8332	-66.4498	-64.0948	-61.7018	-59.1782	-56.4604	-53.563	-50.5136	-47.3397	-44.0688	-40.7284	-37.3406	-33.8889	-30.3412	-26.6648	-22.8275	-18.7971	-14.5742	-10.2179	-5.7934	-1.3661	3.0688	7.6221	12.1886	16.7294	21.3172	25.9674	30.5764	35.0627	39.4512	43.7798	48.0449	52.2295	56.3444	60.4292	64.4646	68.1302	71.2001	74.2075	77.4	80.5844	83.85	87.0335	89.9019	92.2359	94.0191	95.3936	96.5009	97.4726	98.3612	99.1539	99.8085	100.2869	100.6255	100.8119	100.7296	100.2577	98.8008	97.8901	97.0447	95.9586	95.2962	93.7732	92.9251	92.6418	92.5415	93.4714	94.1803	94.65	95.1826	96.0463	97.2489	98.6782	100.2218	101.7675	103.2471	104.6697	106.0521	107.4113	108.7641	110.1263	111.5126	112.9375	114.4153	115.9606	117.5388	118.9592	120
-120	-120.4659	-120.509	-120.5031	-120.3936	-120.1539	-119.7555	-119.1967	-118.481	-117.6292	-116.661	-115.5956	-114.4497	-113.2354	-111.9659	-110.6521	-109.3079	-107.9401	-106.5638	-105.1681	-103.7608	-102.3491	-100.9335	-99.5216	-98.1209	-96.7325	-95.3595	-94.0117	-92.6913	-91.4068	-90.2192	-89.1374	-88.0814	-87.0785	-86.0955	-85.0672	-84.227	-83.3633	-82.2587	-81.2931	-80.8098	-80.4676	-80.3887	-80.1678	-79.736	-79.6538	-79.5413	-79.4278	-79.5656	-79.7655	-80.0073	-80.1833	-80.1921	-79.5949	-79.6584	-78.508	-77.9028	-78.4349	-78.4915	-77.8793	-76.5304	-75.0593	-73.7696	-72.0809	-69.8486	-67.4279	-65.0655	-62.6818	-60.1414	-57.3366	-54.269	-50.9819	-47.5242	-43.9419	-40.2749	-36.5454	-32.6886	-28.6316	-24.2827	-19.6822	-14.8227	-9.7333	-4.5622	0.6243	5.9671	11.2799	16.5482	21.9188	27.2721	32.4521	37.4045	42.1801	46.7689	51.2179	55.668	60.1497	64.5367	68.4123	71.5876	74.7365	78.0494	81.4316	84.9771	88.1888	90.8046	92.9514	94.7032	96.0414	97.0743	97.9484	98.8568	99.7133	100.3555	100.9823	101.6906	102.0796	102.127	101.7349	100.1977	99.4189	98.459	97.3627	96.6699	95.0658	93.7045	93.1843	92.6846	92.8275	93.2979	93.3658	93.4169	93.7804	94.6205	95.8395	97.3056	98.9123	100.5566	102.1704	103.7481	105.2878	106.7854	108.2339	109.6312	110.9913	112.3383	113.6877	115.0529	116.4275	117.7431	118.9213	120
-120	-120.2363	-120.0162	-119.8129	-119.5877	-119.2674	-118.8028	-118.1793	-117.3959	-116.4811	-115.46	-114.3545	-113.1829	-111.957	-110.6869	-109.3819	-108.0555	-106.7134	-105.3698	-104.0137	-102.651	-101.2862	-99.9188	-98.5588	-97.2213	-95.9027	-94.5847	-93.2681	-91.9672	-90.7184	-89.614	-88.6658	-87.7242	-86.8157	-85.9293	-84.9553	-84.1978	-83.4155	-82.3774	-81.4309	-80.9402	-80.6162	-80.5497	-80.3357	-79.8879	-79.7361	-79.6269	-79.4469	-79.6195	-79.8648	-80.0816	-80.1738	-79.9867	-79.2061	-79.0621	-77.8623	-77.204	-77.5564	-77.4234	-76.6482	-75.1757	-73.5765	-72.1446	-70.3568	-68.0851	-65.6505	-63.2718	-60.8677	-58.306	-55.4789	-52.3827	-49.0615	-45.5685	-41.952	-38.2472	-34.4701	-30.5477	-26.4085	-21.9873	-17.3822	-12.5446	-7.4371	-2.2203	3.0176	8.4021	13.751	19.0279	24.371	29.7416	35.0089	40.027	44.7771	49.2126	53.4844	57.8441	62.2714	66.6028	70.4508	73.6391	76.8123	80.1866	83.5968	87.0003	89.9078	92.1819	94.1291	95.8067	97.0884	98.034	98.7986	99.6536	100.4946	101.1059	101.7389	102.4844	102.8918	102.9629	102.4379	100.881	100.2201	99.203	98.186	97.4548	95.7492	94.2981	93.6914	93.1125	93.0903	93.3556	93.2711	93.2132	93.4952	94.2654	95.4321	96.872	98.483	100.1612	101.8348	103.4885	105.1113	106.6894	108.2068	109.6567	111.0557	112.4329	113.8076	115.19	116.562	117.8477	118.9764	120
-120	-119.7982	-119.0918	-118.4748	-117.946	-117.3913	-116.7405	-115.9579	-115.0313	-113.9945	-112.8779	-111.7054	-110.4953	-109.2576	-107.9968	-106.7167	-105.4261	-104.1288	-102.839	-101.5463	-100.2556	-98.9689	-97.6847	-96.4156	-95.1836	-93.979	-92.7595	-91.5179	-90.2835	-89.1249	-88.1553	-87.3887	-86.621	-85.8534	-85.12	-84.3072	-83.6924	-83.0662	-82.2249	-81.4085	-80.9466	-80.678	-80.6506	-80.4813	-80.0519	-79.8254	-79.7491	-79.5038	-79.659	-79.9084	-80.0321	-79.9485	-79.4764	-78.4862	-78.0232	-76.7612	-75.9289	-75.8369	-75.2993	-74.2045	-72.5213	-70.7093	-69.0164	-67.0351	-64.6656	-62.1554	-59.6708	-57.1407	-54.4551	-51.5218	-48.335	-44.9334	-41.3637	-37.6661	-33.8632	-29.9636	-25.896	-21.6042	-17.0601	-12.4353	-7.616	-2.4878	2.771	8.053	13.452	18.7988	24.0405	29.2939	34.6044	39.8797	44.8804	49.5134	53.7041	57.7079	61.8817	66.1268	70.2493	73.9576	77.129	80.3279	83.7701	87.1084	90.0855	92.442	94.258	95.8995	97.382	98.5274	99.3391	99.9668	100.6973	101.4462	101.993	102.5197	103.0716	103.371	103.3972	102.6772	101.1795	100.5891	99.6018	98.7169	97.9694	96.3026	94.8866	94.2466	93.7141	93.667	93.8823	93.8639	93.8962	94.2193	94.9513	96.0239	97.3449	98.8348	100.4071	101.9992	103.5935	105.1756	106.7289	108.2361	109.6895	111.1037	112.5047	113.9089	115.3169	116.6927	117.9522	119.0351	120
-120	-119.2382	-117.9344	-116.7997	-115.8729	-115.0063	-114.1096	-113.1213	-112.015	-110.828	-109.5954	-108.3428	-107.0881	-105.8382	-104.5914	-103.3442	-102.0979	-100.8545	-99.6279	-98.4094	-97.2033	-96.0094	-94.8256	-93.6661	-92.5584	-91.4858	-90.3841	-89.2446	-88.1126	-87.0825	-86.2731	-85.7013	-85.13	-84.5239	-83.9677	-83.3751	-82.9361	-82.505	-81.9271	-81.3046	-80.898	-80.7047	-80.7257	-80.6184	-80.2286	-79.9373	-79.9071	-79.5975	-79.6925	-79.9066	-79.8854	-79.5648	-78.7675	-77.5679	-76.7371	-75.4036	-74.3268	-73.6494	-72.5975	-71.1059	-69.1713	-67.1071	-65.0943	-62.8704	-60.3693	-57.7459	-55.1031	-52.3869	-49.5204	-46.4349	-43.1244	-39.6181	-35.9485	-32.1416	-28.2054	-24.1435	-19.8951	-15.4243	-10.7337	-6.0733	-1.2622	3.8903	9.1885	14.5093	19.9053	25.2262	30.4118	35.5542	40.7641	45.9828	50.8928	55.3413	59.251	62.9544	66.8943	70.8904	74.7247	78.2346	81.376	84.6008	88.0934	91.2785	93.6741	95.3702	96.6948	97.9874	99.2069	100.1671	100.8201	101.3013	101.8678	102.4772	102.9367	103.2908	103.5237	103.6428	103.5788	102.6517	101.2652	100.7009	99.7953	99.067	98.3229	96.7883	95.4849	94.8472	94.4367	94.4527	94.7158	94.8928	95.1314	95.5679	96.2827	97.2395	98.3887	99.6837	101.065	102.4883	103.9377	105.4004	106.8615	108.3069	109.7306	111.1416	112.5571	113.9869	115.4192	116.7991	118.0363	119.0832	120
-120	-118.6433	-116.743	-115.098	-113.7726	-112.5933	-111.451	-110.2585	-108.975	-107.6401	-106.2931	-104.9614	-103.6624	-102.4001	-101.1669	-99.952	-98.7492	-97.5583	-96.3933	-95.2469	-94.1229	-93.0201	-91.9358	-90.8842	-89.8962	-88.9471	-87.9588	-86.9319	-85.9274	-85.0473	-84.3976	-83.9989	-83.6097	-83.1596	-82.7725	-82.4113	-82.1543	-81.9215	-81.61	-81.1973	-80.8632	-80.7476	-80.8099	-80.7612	-80.4185	-80.087	-80.1002	-79.7272	-79.7282	-79.8698	-79.6681	-79.0802	-77.9661	-76.5841	-75.3993	-73.9888	-72.6465	-71.3668	-69.7962	-67.9099	-65.7298	-63.419	-61.0878	-58.6172	-55.9756	-53.2258	-50.4094	-47.4926	-44.4334	-41.1879	-37.7497	-34.1361	-30.3617	-26.4363	-22.3567	-18.1276	-13.7064	-9.0744	-4.2408	0.4719	5.2918	10.4732	15.8094	21.1652	26.5506	31.8358	36.9673	42.019	47.1242	52.2366	56.9921	61.213	64.8608	68.2893	71.9949	75.737	79.2777	82.5837	85.6989	88.9486	92.45	95.4196	97.2079	98.2712	99.1547	100.1174	101.0591	101.816	102.3076	102.6504	103.0452	103.4967	103.8569	104.0184	103.9124	103.8325	103.6564	102.56	101.3101	100.7306	99.923	99.3481	98.6245	97.2686	96.1079	95.4906	95.2275	95.3422	95.6942	96.1067	96.5841	97.1557	97.8637	98.7035	99.6682	100.7455	101.906	103.1265	104.3961	105.7057	107.0448	108.4047	109.7812	111.1756	112.5938	114.0369	115.4826	116.8607	118.0796	119.1064	120
-120	-119.2326	-117.191	-114.8576	-112.884	-111.226	-109.7514	-108.3281	-106.8659	-105.382	-103.9104	-102.4742	-101.0891	-99.7603	-98.4751	-97.2185	-95.9774	-94.7523	-93.5518	-92.3836	-91.2478	-90.1401	-89.069	-88.0645	-87.1415	-86.1889	-85.2017	-84.2688	-83.4974	-82.9553	-82.6666	-82.4002	-82.0692	-81.8128	-81.6472	-81.5566	-81.4899	-81.3605	-81.1004	-80.8728	-80.8779	-80.9535	-80.8612	-80.4924	-80.2642	-80.2784	-79.7292	-79.8511	-79.6938	-79.1334	-78.0426	-76.5501	-75.0569	-73.6206	-72.1405	-70.5116	-68.6845	-66.6564	-64.4484	-62.0978	-59.6432	-57.1192	-54.5309	-51.869	-49.1244	-46.2877	-43.3499	-40.3016	-37.1345	-33.847	-30.4406	-26.9166	-23.2767	-19.5221	-15.6525	-11.6624	-7.5452	-3.2945	1.0614	5.2739	9.4675	13.8919	18.5066	23.1651	27.8098	32.4433	37.0364	41.5226	45.9002	50.3161	54.8573	59.2884	63.3161	66.8736	70.0289	73.0717	76.3829	79.715	82.8895	85.9317	88.9457	92.0804	95.4485	98.3792	99.9328	100.6083	101.1578	101.8617	102.592	103.2077	103.5964	103.8391	104.0873	104.3965	104.669	104.6667	104.3003	104.0584	103.7204	102.4479	101.3959	100.7388	100.0109	99.5778	98.7309	97.4692	96.5287	96.073	96.0868	96.4111	96.9623	97.6352	98.3343	99.0514	99.8182	100.6667	101.6168	102.6618	103.7913	104.9951	106.2628	107.5849	108.9588	110.3846	111.8623	113.392	114.9691	116.5275	117.9586	119.1526	120
-120	-117.6808	-115.0122	-112.7878	-111.013	-109.4907	-108.082	-106.6646	-105.1801	-103.6712	-102.1831	-100.7489	-99.387	-98.0981	-96.8716	-95.6886	-94.5349	-93.407	-92.3177	-91.2602	-90.2381	-89.2506	-88.2943	-87.3792	-86.5284	-85.7025	-84.8379	-84.0058	-83.2871	-82.7075	-82.2778	-82.0315	-81.8265	-81.574	-81.3809	-81.3358	-81.3595	-81.399	-81.3897	-81.2665	-81.0907	-81.073	-81.1327	-81.1152	-80.8382	-80.5531	-80.5831	-80.0853	-79.8348	-79.7288	-79.1227	-78.0281	-76.4893	-74.921	-73.3043	-71.7369	-69.9902	-67.9206	-65.6936	-63.3219	-60.8428	-58.2252	-55.4861	-52.6805	-49.8235	-46.8729	-43.8033	-40.613	-37.3044	-33.8584	-30.2616	-26.5072	-22.5775	-18.4591	-14.1565	-9.7102	-5.1303	-0.3926	4.6157	9.4846	14.3973	19.6528	25.0649	30.4864	35.866	41.104	46.2192	51.3004	56.3201	61.1286	65.4253	69.1579	72.546	75.7183	79.1329	82.5809	85.7959	88.8781	92.0141	95.3048	98.6111	101.0374	102.0199	102.4128	102.8745	103.4677	104.0091	104.4223	104.6655	104.8223	104.9695	105.1601	105.3266	105.2173	104.7686	104.4377	104.0618	102.9239	101.9218	101.2026	100.5069	100.1226	99.4812	98.4435	97.4801	96.8916	96.811	97.0324	97.4696	98.1366	98.8758	99.5926	100.2777	100.9559	101.6642	102.4309	103.2686	104.1849	105.18	106.2531	107.4016	108.6243	109.9141	111.2555	112.6338	114.0376	115.4414	116.7767	117.9711	119.0274	120
-120	-117.3968	-114.6231	-112.3808	-110.5945	-109.0703	-107.6609	-106.2395	-104.7472	-103.2269	-101.7242	-100.2747	-98.8979	-97.5953	-96.3591	-95.1715	-94.0187	-92.8965	-91.8161	-90.7698	-89.7609	-88.7899	-87.8535	-86.9567	-86.1129	-85.2782	-84.4179	-83.6567	-83.0765	-82.6248	-82.2403	-81.9657	-81.7504	-81.5273	-81.3473	-81.3593	-81.4625	-81.5548	-81.5507	-81.4768	-81.3726	-81.3649	-81.3778	-81.3252	-81.0567	-80.8468	-80.8386	-80.2831	-79.8939	-79.6239	-78.8174	-77.5187	-75.8983	-74.329	-72.6593	-71.017	-69.1646	-66.9756	-64.6649	-62.2404	-59.7283	-57.0711	-54.2726	-51.4034	-48.4877	-45.4799	-42.3543	-39.1182	-35.7776	-32.3113	-28.6982	-24.9219	-20.9537	-16.7758	-12.4113	-7.9315	-3.3776	1.2961	6.3246	11.29	16.2835	21.5823	27.0316	32.4843	37.8754	43.1138	48.2772	53.4802	58.5243	63.1589	67.1906	70.7044	74.116	77.3278	80.7118	84.151	87.3713	90.4613	93.6456	96.9424	100.0447	102.1786	103.037	103.4487	103.9523	104.5291	104.9807	105.278	105.4469	105.561	105.6495	105.7574	105.8406	105.6819	105.2793	104.9271	104.4848	103.4819	102.5685	101.7453	101.0422	100.6793	100.088	99.1521	98.216	97.6252	97.5479	97.7422	98.1371	98.7682	99.4797	100.1746	100.8341	101.4772	102.137	102.8441	103.6177	104.4709	105.4081	106.431	107.5389	108.7306	109.9939	111.3061	112.6451	113.9975	115.3464	116.6407	117.8284	118.9307	120
-120	-117.2448	-114.5006	-112.3502	-110.6304	-109.1601	-107.7905	-106.4002	-104.9345	-103.4345	-101.9429	-100.4953	-99.1117	-97.7956	-96.5441	-95.3429	-94.1807	-93.0531	-91.9695	-90.9208	-89.9098	-88.9386	-88.0033	-87.1035	-86.2407	-85.3719	-84.4992	-83.7969	-83.3402	-82.9929	-82.6229	-82.283	-82.0182	-81.7947	-81.596	-81.6213	-81.7723	-81.8782	-81.8206	-81.7521	-81.7075	-81.6923	-81.6445	-81.539	-81.2656	-81.1333	-81.0603	-80.4555	-79.9317	-79.4822	-78.4867	-77.024	-75.3836	-73.8459	-72.187	-70.4742	-68.5622	-66.3729	-64.0816	-61.6827	-59.1845	-56.5345	-53.7379	-50.8506	-47.8997	-44.8556	-41.7063	-38.4632	-35.1294	-31.6748	-28.0708	-24.2932	-20.3057	-16.0889	-11.6871	-7.2026	-2.7068	1.8686	6.8905	11.9541	17.0389	22.3819	27.8657	33.3471	38.7555	44.0086	49.2431	54.5907	59.6658	64.1241	67.9053	71.241	74.7383	78.0565	81.4618	84.9493	88.2442	91.3922	94.6314	97.9134	100.7697	102.62	103.4767	104.0479	104.6887	105.315	105.7271	105.9394	106.0565	106.1464	106.2025	106.2501	106.2599	106.0891	105.813	105.4822	104.9946	104.1784	103.3342	102.4067	101.6702	101.293	100.7463	99.8834	98.9498	98.3531	98.2413	98.3738	98.6902	99.2156	99.8308	100.4617	101.0872	101.7126	102.3585	103.0494	103.8046	104.6378	105.5555	106.5607	107.654	108.8327	110.0784	111.3622	112.6565	113.9477	115.2316	116.4796	117.663	118.8206	120
-120	-117.2213	-114.5962	-112.5871	-110.9574	-109.5483	-108.2192	-106.8637	-105.436	-103.972	-102.5072	-101.0729	-99.688	-98.3587	-97.0888	-95.869	-94.6921	-93.5534	-92.4608	-91.4032	-90.3832	-89.4039	-88.4604	-87.5461	-86.6515	-85.7411	-84.8572	-84.2072	-83.8501	-83.5776	-83.2025	-82.7872	-82.4585	-82.2184	-81.9899	-82.0049	-82.1796	-82.2745	-82.1378	-82.0478	-82.046	-82.0131	-81.9048	-81.7414	-81.4532	-81.3746	-81.2147	-80.5727	-79.9281	-79.2926	-78.1268	-76.5448	-74.9234	-73.4262	-71.8042	-70.0267	-68.0845	-65.9583	-63.7381	-61.4015	-58.9384	-56.3178	-53.5543	-50.6741	-47.7027	-44.6364	-41.4821	-38.2525	-34.9433	-31.5146	-27.9307	-24.1623	-20.1684	-15.9295	-11.5076	-7.0286	-2.5911	1.8872	6.8913	12.0466	17.2232	22.6084	28.1224	33.6288	39.0572	44.3369	49.6527	55.128	60.2094	64.4981	68.0727	71.2887	74.8999	78.3542	81.8113	85.3742	88.7761	92.0066	95.2918	98.5295	101.1216	102.7138	103.6362	104.4269	105.2395	105.9417	106.3442	106.4961	106.5746	106.6461	106.6813	106.6825	106.6289	106.466	106.3412	106.0512	105.5378	104.9171	104.127	103.112	102.3305	101.9152	101.3987	100.5891	99.6533	99.054	98.888	98.9412	99.1614	99.5457	100.0286	100.5719	101.1561	101.7704	102.4202	103.1207	103.8859	104.7266	105.6497	106.6582	107.7531	108.9297	110.1642	111.4223	112.6723	113.902	115.1207	116.3233	117.5041	118.7169	120
-120	-118.7961	-116.3016	-114.0801	-112.2185	-110.6087	-109.1432	-107.7152	-106.2673	-104.8066	-103.3447	-101.8931	-100.4633	-99.067	-97.7144	-96.4071	-95.1428	-93.9195	-92.7372	-91.5967	-90.4987	-89.444	-88.4249	-87.423	-86.4196	-85.4451	-84.7358	-84.3962	-84.1548	-83.7515	-83.2628	-82.8811	-82.6206	-82.376	-82.4183	-82.6119	-82.627	-82.3923	-82.3197	-82.3383	-82.2482	-82.0712	-81.8255	-81.5427	-81.5082	-81.0673	-80.3506	-79.5946	-78.6288	-77.0799	-75.4154	-73.8883	-72.3893	-70.7237	-68.8681	-66.8891	-64.831	-62.6786	-60.4065	-57.993	-55.4418	-52.7681	-49.9872	-47.1145	-44.1651	-41.1544	-38.0962	-34.9816	-31.783	-28.4725	-25.022	-21.4036	-17.5927	-13.6244	-9.5825	-5.552	-1.6177	2.3613	6.7728	11.3693	15.9566	20.6029	25.3639	30.1624	34.9122	39.5996	44.2441	48.9412	53.7739	58.4677	62.5897	66.0754	69.1148	72.1182	75.6573	78.9726	82.2742	85.6915	89.0467	92.2443	95.4469	98.5835	101.0494	102.5625	103.5955	104.5816	105.5574	106.3937	106.8819	107.0289	107.0755	107.124	107.1401	107.1024	106.9963	106.8393	106.834	106.5599	106.0218	105.5386	104.7425	103.6064	102.8584	102.41	101.8267	100.9642	100.0449	99.6033	99.4529	99.5032	99.7002	100.0123	100.4377	100.9655	101.5784	102.2673	103.0352	103.8858	104.8231	105.8495	106.9631	108.1615	109.4326	110.7425	112.0539	113.3375	114.6113	115.9104	117.27	118.7254	120
-120	-117.5434	-115.2518	-113.443	-111.8588	-110.4127	-109.0161	-107.6235	-106.2189	-104.8133	-103.4109	-102.0151	-100.6331	-99.2803	-97.9738	-96.7176	-95.5131	-94.3557	-93.2504	-92.1831	-91.1558	-90.1708	-89.2181	-88.2793	-87.3315	-86.3832	-85.5483	-85.0029	-84.7405	-84.507	-84.1049	-83.6113	-83.2034	-82.9347	-82.6903	-82.6914	-82.8721	-82.9265	-82.6798	-82.5328	-82.5481	-82.4774	-82.2997	-82.0558	-81.7197	-81.5797	-81.1969	-80.5317	-79.7232	-78.7293	-77.3056	-75.6336	-74.0829	-72.603	-70.9899	-69.1058	-67.1282	-65.1058	-62.9876	-60.7295	-58.3009	-55.7121	-52.9946	-50.1256	-47.1257	-44.0291	-40.87	-37.6573	-34.3748	-30.9713	-27.4063	-23.6491	-19.6576	-15.4092	-10.9693	-6.4627	-2.0225	2.4004	7.3934	12.6815	18.0058	23.4589	29.0136	34.5549	40.0185	45.3793	50.8413	56.372	61.2737	65.2766	68.68	71.8959	75.6915	79.3648	82.9349	86.6153	90.1897	93.562	96.8544	99.8829	101.9821	103.1971	104.2434	105.347	106.3763	107.1619	107.5569	107.6366	107.642	107.6464	107.619	107.5353	107.3857	107.232	107.2749	107.0368	106.5215	106.1563	105.4456	104.3713	103.5188	103.0019	102.4689	101.7426	100.8637	100.2942	100.0314	99.9384	99.983	100.1097	100.3441	100.7119	101.1968	101.7672	102.4158	103.1434	103.9478	104.8283	105.7849	106.8174	107.9265	109.1057	110.3262	111.548	112.7341	113.8749	115.001	116.1391	117.3161	118.6033	120
-120	-117.8611	-115.739	-113.943	-112.277	-110.7023	-109.1735	-107.6895	-106.2539	-104.858	-103.482	-102.1054	-100.7252	-99.3621	-98.0396	-96.7689	-95.5555	-94.3947	-93.2907	-92.2284	-91.2092	-90.2335	-89.2873	-88.3468	-87.3879	-86.4556	-85.6914	-85.2027	-84.9349	-84.6679	-84.2543	-83.776	-83.3706	-83.1014	-82.8855	-82.8998	-83.0724	-83.1108	-82.8582	-82.6914	-82.6813	-82.597	-82.4189	-82.1611	-81.7958	-81.5299	-81.0181	-80.3668	-79.5179	-78.3583	-76.8478	-75.1989	-73.6786	-72.1595	-70.4906	-68.5641	-66.5655	-64.5377	-62.4093	-60.1351	-57.6862	-55.0805	-52.3515	-49.4694	-46.4534	-43.3419	-40.1712	-36.9466	-33.6501	-30.2323	-26.6553	-22.8919	-18.9029	-14.6614	-10.2156	-5.6629	-1.1426	3.3432	8.3545	13.6801	19.054	24.5317	30.0967	35.648	41.1242	46.5359	52.0531	57.4911	62.193	66.0838	69.5312	72.8658	76.7058	80.4337	84.0461	87.7453	91.3565	94.7678	98.0139	100.8782	102.7665	103.8675	104.9253	106.0621	107.0929	107.8571	108.2359	108.2952	108.2579	108.2048	108.1243	107.9945	107.8104	107.6432	107.6645	107.4196	106.9232	106.5905	105.9107	104.8717	104.004	103.4356	102.8535	102.1666	101.3598	100.8262	100.5355	100.3895	100.3694	100.4071	100.5522	100.848	101.277	101.8066	102.4365	103.1658	103.9835	104.8815	105.8532	106.8951	108.0076	109.1851	110.4003	111.6121	112.7817	113.9009	115.0056	116.1282	117.3032	118.604	120
-120	-118.2519	-116.2989	-114.4725	-112.6736	-110.917	-109.2083	-107.5976	-106.1102	-104.7142	-103.3621	-102.0046	-100.6261	-99.2534	-97.9161	-96.6327	-95.413	-94.2519	-93.153	-92.1004	-91.0952	-90.1348	-89.2005	-88.2636	-87.3014	-86.4022	-85.7311	-85.3014	-85.0031	-84.6776	-84.254	-83.8175	-83.4351	-83.1725	-83.0028	-83.0406	-83.2002	-83.2251	-82.9909	-82.809	-82.7576	-82.6624	-82.5003	-82.2415	-81.8447	-81.4072	-80.7584	-80.1332	-79.2639	-77.9453	-76.3677	-74.7741	-73.2809	-71.6995	-69.9449	-67.9814	-65.9596	-63.8972	-61.728	-59.4102	-56.9224	-54.2837	-51.5259	-48.621	-45.5878	-42.461	-39.274	-36.0273	-32.7034	-29.2578	-25.6584	-21.8828	-17.8967	-13.6674	-9.2168	-4.6023	0.0362	4.6287	9.6699	15.0193	20.4311	25.9289	31.4994	37.0572	42.5436	48.0109	53.5744	58.8619	63.3114	67.1048	70.6582	74.1675	78.0282	81.7835	85.4309	89.1288	92.7523	96.1867	99.3628	102.0346	103.7297	104.7521	105.7958	106.9049	107.8849	108.5966	108.9527	108.9986	108.9152	108.793	108.6488	108.4706	108.2583	108.0688	108.0167	107.7489	107.2807	106.9344	106.2816	105.3087	104.436	103.8162	103.1654	102.5173	101.8038	101.3161	101.008	100.8188	100.7455	100.7143	100.7876	101.0195	101.3897	101.8693	102.4716	103.1963	104.0236	104.9373	105.9228	106.9725	108.0864	109.2606	110.471	111.6766	112.8373	113.9459	115.0413	116.1564	117.3294	118.6323	120
-120	-118.6914	-116.9072	-115.0217	-113.0558	-111.0817	-109.1615	-107.4006	-105.8474	-104.4449	-103.1148	-101.7764	-100.3996	-99.0177	-97.6664	-96.3717	-95.1472	-93.9878	-92.8965	-91.8569	-90.8696	-89.9286	-89.0099	-88.0802	-87.1198	-86.265	-85.7019	-85.3327	-84.9872	-84.5865	-84.1539	-83.7767	-83.4312	-83.1798	-83.0681	-83.1364	-83.2797	-83.2928	-83.0931	-82.8993	-82.7959	-82.6915	-82.5565	-82.3053	-81.8755	-81.2361	-80.4449	-79.8537	-78.9773	-77.5041	-75.8727	-74.3558	-72.8875	-71.2283	-69.3683	-67.3713	-65.3247	-63.2086	-60.9781	-58.5984	-56.0593	-53.3767	-50.5786	-47.6446	-44.5933	-41.4512	-38.2446	-34.969	-31.6085	-28.1265	-24.4975	-20.7058	-16.7227	-12.5093	-8.0547	-3.3677	1.4144	6.1428	11.2217	16.5856	22.0275	27.5424	33.1153	38.6771	44.1722	49.6981	55.3021	60.4004	64.5625	68.2683	71.9689	75.6904	79.5561	83.3207	86.998	90.6815	94.301	97.7478	100.8378	103.2984	104.812	105.7795	106.7918	107.8328	108.7271	109.3657	109.6946	109.7318	109.6003	109.4011	109.1861	108.9581	108.7218	108.5038	108.3442	108.0426	107.6088	107.218	106.5895	105.7035	104.8325	104.1613	103.4289	102.8192	102.213	101.7779	101.4592	101.2337	101.1149	101.0281	101.0413	101.2147	101.5242	101.9477	102.5163	103.2322	104.0666	104.995	105.9934	107.0497	108.1635	109.3334	110.5394	111.7415	112.8983	114.0036	115.0977	116.2108	117.3817	118.6792	120
-120	-119.7351	-118.5958	-116.8065	-114.5916	-112.1756	-109.7827	-107.6373	-105.8718	-104.3853	-103.0397	-101.6983	-100.2894	-98.8473	-97.4159	-96.0384	-94.7371	-93.5097	-92.3524	-91.2616	-90.2333	-89.2468	-88.2626	-87.2404	-86.2812	-85.7155	-85.3805	-84.9676	-84.462	-84.0004	-83.6823	-83.3754	-83.1441	-83.1132	-83.2334	-83.3505	-83.3163	-83.1351	-82.9336	-82.7827	-82.6755	-82.549	-82.2396	-81.6689	-80.7072	-79.8703	-79.3475	-78.1639	-76.3767	-74.7824	-73.3685	-71.8321	-69.9352	-67.9777	-65.978	-63.8899	-61.6981	-59.3872	-56.9459	-54.3804	-51.7019	-48.9212	-46.0494	-43.0976	-40.0768	-36.9953	-33.8476	-30.6243	-27.3156	-23.912	-20.4038	-16.7794	-13.0129	-9.0716	-4.9229	-0.5377	3.8901	8.2437	12.7575	17.4685	22.243	27.0204	31.8267	36.6555	41.4375	46.1808	51.0584	56.0357	60.5456	64.225	67.4964	70.8846	74.5237	78.1739	81.7574	85.2771	88.7441	92.1856	95.6293	98.9817	101.9657	104.2885	105.7358	106.676	107.6305	108.6016	109.4389	110.054	110.4142	110.4917	110.3307	110.05	109.7526	109.4662	109.1993	108.9416	108.6517	108.2993	107.8894	107.4121	106.7847	105.9222	105.0678	104.333	103.4909	102.9688	102.4549	102.1203	101.7711	101.5601	101.4026	101.303	101.3577	101.5724	101.9117	102.4351	103.1712	104.0759	105.1019	106.2028	107.3551	108.5574	109.8089	111.0887	112.3519	113.5644	114.7606	115.9977	117.3333	118.8194	120
[Q]
0	0	0	0	0	0	0	0	0	0	0	0	0	0	0	0	0	0	0	0	0	0	0	0	0	0	0	0	0	0	0	0	0	0	0	0	0	0	0	0	0	0	0	0	0	0	0	0	0	0	0	0	0	0	0	0	0	0	0	0	0	0	0	0	0	0	0	0	0	0	0	0	0	0	0	0	0	0	0	0	0	0	0	0	0	0	0	0	0	0	0	0	0	0	0	0	0	0	0	0	0	0	0	0	0	0	0	0	0	0	0	0	0	0	0	0	0	0	0	0	0	0	0	0	0	0	0	0	0	0	0	0	0	0	0	0	0	0	0	0	0	0	0	0	0	0	0	0	0	0	0
-0.0447	-0.0429	-0.0419	-0.041	-0.0397	-0.0385	-0.0373	-0.0364	-0.0357	-0.0349	-0.0335	-0.0319	-0.0305	-0.0293	-0.0279	-0.0262	-0.0245	-0.0229	-0.021	-0.0189	-0.0168	-0.0148	-0.0129	-0.0107	-0.0077	-0.0054	-0.0027	0.0026	0.0085	0.0121	0.0144	0.0156	0.0159	0.016	0.0161	0.0164	0.0167	0.017	0.0171	0.0172	0.0173	0.0173	0.0174	0.0175	0.0175	0.0177	0.0178	0.0179	0.0179	0.0179	0.018	0.018	0.018	0.018	0.0179	0.0179	0.0179	0.018	0.018	0.0181	0.0182	0.0182	0.0183	0.0184	0.0185	0.0185	0.0185	0.0185	0.0185	0.0185	0.0185	0.0185	0.0184	0.0184	0.0185	0.0185	0.0185	0.0185	0.0185	0.0185	0.0185	0.0185	0.0185	0.0185	0.0186	0.0186	0.0185	0.0183	0.0181	0.0179	0.0179	0.018	0.018	0.0178	0.0177	0.0175	0.0175	0.0174	0.0174	0.0175	0.0175	0.0174	0.0173	0.0171	0.017	0.0169	0.017	0.017	0.017	0.0169	0.0167	0.0165	0.0162	0.016	0.016	0.0159	0.0156	0.0152	0.015	0.015	0.015	0.0148	0.0147	0.0143	0.0136	0.0129	0.0121	0.0102	0.0079	0.0045	0.0012	-0.0023	-0.0057	-0.0087	-0.0112	-0.0134	-0.0151	-0.0159	-0.0168	-0.0179	-0.0193	-0.0206	-0.022	-0.023	-0.0239	-0.0246	-0.0252	-0.0258	-0.0265	-0.0272	-0.028
-0.0818	-0.0801	-0.0781	-0.0766	-0.0749	-0.0728	-0.0708	-0.0689	-0.0675	-0.0663	-0.0653	-0.0639	-0.0619	-0.0597	-0.0576	-0.0558	-0.0541	-0.0521	-0.0496	-0.0472	-0.045	-0.0427	-0.0401	-0.0374	-0.0346	-0.032	-0.0296	-0.0274	-0.0252	-0.0229	-0.0203	-0.0174	-0.0146	-0.0122	-0.0106	-0.0094	-0.0067	-0.0028	0.0013	0.0047	0.0084	0.0127	0.0163	0.0196	0.0225	0.0249	0.0267	0.028	0.0288	0.0293	0.0296	0.0299	0.0302	0.0307	0.0312	0.0317	0.0321	0.0324	0.0326	0.0328	0.033	0.0332	0.0335	0.0338	0.0339	0.034	0.034	0.034	0.0339	0.034	0.0342	0.0345	0.0347	0.035	0.0351	0.0351	0.035	0.035	0.035	0.035	0.035	0.035	0.035	0.035	0.0351	0.0344	0.0339	0.034	0.0335	0.0331	0.033	0.033	0.0328	0.0323	0.032	0.032	0.0319	0.0315	0.0306	0.03	0.03	0.0291	0.0284	0.0281	0.028	0.0277	0.0273	0.0265	0.0255	0.0245	0.0235	0.0225	0.021	0.019	0.0168	0.0147	0.0121	0.0087	0.0055	0.0027	-0.0002	-0.0038	-0.0072	-0.0099	-0.0128	-0.0156	-0.018	-0.02	-0.0221	-0.0244	-0.0266	-0.028	-0.0291	-0.0303	-0.0315	-0.0329	-0.0344	-0.036	-0.0375	-0.0391	-0.0405	-0.0417	-0.0428	-0.0439	-0.0448	-0.0457	-0.0466	-0.0475	-0.0486	-0.0497	-0.0507
-0.106	-0.1016	-0.0993	-0.0971	-0.0946	-0.0923	-0.09	-0.0882	-0.0865	-0.0848	-0.0819	-0.0785	-0.0753	-0.0725	-0.0694	-0.0656	-0.062	-0.0584	-0.054	-0.0492	-0.0444	-0.0399	-0.0351	-0.0295	-0.0223	-0.0157	-0.0084	0.0034	0.0161	0.025	0.0316	0.0356	0.038	0.0393	0.0401	0.0409	0.0416	0.0423	0.0431	0.0437	0.0442	0.0445	0.0448	0.0451	0.0453	0.0456	0.0459	0.0462	0.0464	0.0465	0.0466	0.0466	0.0467	0.0467	0.0467	0.0467	0.0468	0.0469	0.0471	0.0473	0.0476	0.0477	0.0478	0.048	0.0481	0.0482	0.0483	0.0483	0.0482	0.0481	0.0481	0.0482	0.0483	0.0483	0.0482	0.0481	0.048	0.0479	0.0479	0.0478	0.0478	0.0479	0.0478	0.0479	0.0479	0.048	0.0479	0.0475	0.0471	0.0467	0.0466	0.0467	0.0466	0.0463	0.046	0.0457	0.0455	0.0454	0.0453	0.0452	0.0451	0.045	0.0447	0.0443	0.044	0.0438	0.0436	0.0435	0.0434	0.0432	0.0428	0.0421	0.0413	0.0408	0.0406	0.0404	0.0397	0.039	0.0384	0.038	0.0376	0.0372	0.0366	0.0355	0.0334	0.031	0.0284	0.0233	0.0168	0.0088	0.0017	-0.006	-0.0135	-0.0198	-0.0257	-0.0307	-0.0344	-0.0366	-0.039	-0.0417	-0.0446	-0.0473	-0.05	-0.0522	-0.0541	-0.0557	-0.0572	-0.0586	-0.0602	-0.0621	-0.0641
-0.1203	-0.1154	-0.1128	-0.1104	-0.1081	-0.1059	-0.1039	-0.1021	-0.1004	-0.0984	-0.0956	-0.0921	-0.0885	-0.0852	-0.0818	-0.078	-0.0742	-0.0702	-0.0655	-0.0602	-0.0551	-0.05	-0.0443	-0.0377	-0.0295	-0.0211	-0.0119	0.0006	0.0138	0.024	0.0325	0.0382	0.0423	0.045	0.0463	0.0473	0.0482	0.0493	0.0505	0.0516	0.0524	0.0531	0.0536	0.054	0.0544	0.0547	0.0551	0.0554	0.0557	0.0559	0.0561	0.0562	0.0563	0.0564	0.0565	0.0566	0.0567	0.0569	0.0571	0.0575	0.0578	0.0579	0.058	0.058	0.0581	0.0583	0.0585	0.0585	0.0584	0.0583	0.0583	0.0585	0.0587	0.0587	0.0586	0.0583	0.0581	0.0579	0.0578	0.0577	0.0577	0.0578	0.0578	0.0578	0.0579	0.058	0.0578	0.0575	0.0572	0.0569	0.0567	0.0567	0.0565	0.0563	0.0559	0.0556	0.0553	0.0551	0.055	0.0548	0.0546	0.0544	0.0541	0.0538	0.0534	0.053	0.0526	0.0524	0.0521	0.0518	0.0514	0.0506	0.0497	0.0489	0.0486	0.0483	0.0477	0.047	0.0462	0.0453	0.0447	0.044	0.0432	0.0417	0.039	0.0355	0.032	0.0256	0.0175	0.0085	0.001	-0.0069	-0.015	-0.0214	-0.028	-0.0334	-0.0372	-0.04	-0.0428	-0.0459	-0.0489	-0.0517	-0.0543	-0.0565	-0.0585	-0.0603	-0.0619	-0.0636	-0.0654	-0.0675	-0.0698
-0.1298	-0.125	-0.1223	-0.1202	-0.1183	-0.1166	-0.1149	-0.1133	-0.1115	-0.1094	-0.1067	-0.1032	-0.0994	-0.0959	-0.0923	-0.0886	-0.0848	-0.0806	-0.0758	-0.0703	-0.0651	-0.0597	-0.0534	-0.046	-0.0374	-0.0273	-0.0165	-0.0041	0.0086	0.0197	0.0297	0.037	0.043	0.0472	0.0493	0.0506	0.0518	0.0534	0.0551	0.0567	0.058	0.059	0.0597	0.0604	0.0609	0.0614	0.0618	0.0623	0.0627	0.0631	0.0633	0.0636	0.0638	0.064	0.0643	0.0645	0.0646	0.0648	0.0651	0.0655	0.0659	0.0661	0.0661	0.066	0.0661	0.0664	0.0666	0.0668	0.0667	0.0666	0.0667	0.067	0.0672	0.0673	0.0671	0.0667	0.0664	0.0661	0.0659	0.0658	0.0659	0.0659	0.066	0.066	0.0661	0.0662	0.0662	0.066	0.0657	0.0655	0.0653	0.0652	0.065	0.0647	0.0644	0.064	0.0637	0.0634	0.0632	0.0629	0.0626	0.0623	0.0621	0.0618	0.0613	0.0607	0.0601	0.0597	0.0594	0.0591	0.0585	0.0577	0.0568	0.0559	0.0553	0.0548	0.0544	0.0538	0.0528	0.0515	0.0504	0.0495	0.0484	0.0465	0.0432	0.0387	0.0343	0.0267	0.0175	0.008	0.0006	-0.0071	-0.0151	-0.0212	-0.0283	-0.0336	-0.0373	-0.0403	-0.0435	-0.0468	-0.0497	-0.0524	-0.0548	-0.057	-0.059	-0.0609	-0.0627	-0.0646	-0.0665	-0.0687	-0.0712
-0.1398	-0.1376	-0.135	-0.133	-0.1314	-0.1301	-0.1289	-0.1277	-0.1264	-0.1249	-0.1231	-0.1211	-0.1188	-0.1161	-0.113	-0.1099	-0.1068	-0.1038	-0.1009	-0.0979	-0.0947	-0.0912	-0.0876	-0.0836	-0.0796	-0.0759	-0.0723	-0.0683	-0.064	-0.0594	-0.0548	-0.0502	-0.0453	-0.0401	-0.0349	-0.0296	-0.0245	-0.0195	-0.0145	-0.0095	-0.0051	-0.0011	0.0047	0.01	0.016	0.0219	0.0272	0.0319	0.0367	0.0417	0.0456	0.0483	0.0501	0.0516	0.0533	0.0555	0.0579	0.0602	0.0621	0.0636	0.0648	0.0658	0.0667	0.0676	0.0685	0.0692	0.0698	0.0704	0.071	0.0714	0.072	0.0728	0.073	0.0729	0.0735	0.074	0.0739	0.0746	0.075	0.0743	0.0736	0.0734	0.0736	0.0738	0.074	0.074	0.0737	0.0733	0.0727	0.0719	0.0712	0.0705	0.0699	0.0694	0.0683	0.0671	0.0664	0.0656	0.0642	0.0627	0.0616	0.061	0.0599	0.0578	0.056	0.0547	0.0533	0.0511	0.0482	0.0448	0.0412	0.0379	0.0342	0.0293	0.0251	0.0202	0.0153	0.0101	0.0055	0.0026	-0.0022	-0.0059	-0.0093	-0.0135	-0.0168	-0.02	-0.0237	-0.0273	-0.0303	-0.0329	-0.0351	-0.0374	-0.0398	-0.0421	-0.0443	-0.0464	-0.0483	-0.0501	-0.0519	-0.0535	-0.0551	-0.0567	-0.0583	-0.0598	-0.0614	-0.0629	-0.0645	-0.0661	-0.0678	-0.0696	-0.0713
-0.1543	-0.1509	-0.1493	-0.1482	-0.1473	-0.1464	-0.1452	-0.1434	-0.1411	-0.1382	-0.1351	-0.1312	-0.1267	-0.1222	-0.118	-0.1141	-0.1099	-0.1051	-0.0998	-0.0939	-0.0881	-0.0818	-0.0744	-0.066	-0.0565	-0.0441	-0.031	-0.0186	-0.0063	0.0056	0.0175	0.0274	0.0364	0.0437	0.0478	0.0506	0.0529	0.0557	0.0587	0.0614	0.0637	0.0655	0.067	0.0682	0.0693	0.0702	0.0711	0.072	0.0728	0.0736	0.0743	0.0749	0.0755	0.076	0.0766	0.0771	0.0774	0.0778	0.0782	0.0788	0.0792	0.0795	0.0795	0.0794	0.0796	0.08	0.0805	0.0809	0.081	0.0811	0.0814	0.082	0.0825	0.0826	0.0825	0.0821	0.0817	0.0815	0.0814	0.0814	0.0815	0.0817	0.0818	0.082	0.0821	0.0823	0.0825	0.0826	0.0827	0.0827	0.0826	0.0824	0.0822	0.0819	0.0815	0.081	0.0805	0.08	0.0796	0.0791	0.0787	0.0783	0.078	0.0777	0.0771	0.0764	0.0755	0.0749	0.0744	0.0741	0.0735	0.0728	0.0719	0.0709	0.0699	0.0692	0.0687	0.0682	0.0669	0.0649	0.0627	0.0609	0.0594	0.0568	0.0524	0.0467	0.0405	0.031	0.0215	0.0113	0.0037	-0.0047	-0.0129	-0.019	-0.027	-0.032	-0.0348	-0.0377	-0.0412	-0.045	-0.0483	-0.0515	-0.0542	-0.0569	-0.0594	-0.0616	-0.0638	-0.0659	-0.0681	-0.0702	-0.0727
-0.1728	-0.1706	-0.1697	-0.1692	-0.1687	-0.1678	-0.1664	-0.1642	-0.1613	-0.1578	-0.154	-0.1495	-0.1444	-0.1393	-0.1345	-0.13	-0.1253	-0.1199	-0.1142	-0.1077	-0.1013	-0.0943	-0.0863	-0.0775	-0.0673	-0.0543	-0.0403	-0.0273	-0.0143	-0.002	0.0103	0.021	0.0308	0.0394	0.0448	0.0487	0.0519	0.0555	0.0591	0.0624	0.0652	0.0674	0.0693	0.0709	0.0723	0.0736	0.0748	0.0759	0.0771	0.0781	0.0791	0.0799	0.0807	0.0815	0.0823	0.0829	0.0834	0.0838	0.0843	0.0849	0.0854	0.0857	0.0858	0.0859	0.0862	0.0867	0.0873	0.0878	0.0881	0.0884	0.0889	0.0896	0.0901	0.0904	0.0903	0.0901	0.0898	0.0897	0.0898	0.0899	0.0901	0.0903	0.0905	0.0907	0.0909	0.0911	0.0915	0.0918	0.0921	0.0922	0.0921	0.0919	0.0917	0.0913	0.0909	0.0903	0.0897	0.0891	0.0886	0.0881	0.0876	0.0872	0.0869	0.0865	0.0859	0.0851	0.0843	0.0836	0.0831	0.0827	0.0823	0.0816	0.0808	0.0798	0.0787	0.0777	0.0771	0.0764	0.0751	0.0729	0.0701	0.0678	0.066	0.0629	0.0582	0.0523	0.0453	0.0348	0.026	0.0154	0.0071	-0.0025	-0.0112	-0.0179	-0.0266	-0.0317	-0.034	-0.0367	-0.0402	-0.0442	-0.0481	-0.0519	-0.0553	-0.0585	-0.0615	-0.0641	-0.0665	-0.0688	-0.071	-0.0731	-0.0754
-0.1937	-0.1927	-0.1924	-0.1922	-0.1917	-0.1906	-0.1887	-0.1859	-0.1823	-0.1781	-0.1735	-0.1683	-0.1626	-0.1568	-0.1514	-0.1462	-0.1408	-0.1349	-0.1285	-0.1215	-0.1144	-0.1066	-0.098	-0.0887	-0.078	-0.0644	-0.0498	-0.036	-0.0217	-0.0091	0.0033	0.0146	0.0251	0.0348	0.0415	0.0467	0.0509	0.0552	0.0594	0.0632	0.0664	0.0691	0.0714	0.0734	0.0752	0.0768	0.0784	0.0798	0.0812	0.0825	0.0837	0.0848	0.0858	0.0868	0.0878	0.0886	0.0892	0.0898	0.0904	0.091	0.0916	0.0919	0.0922	0.0925	0.0929	0.0935	0.0942	0.0948	0.0954	0.0958	0.0965	0.0972	0.0978	0.0982	0.0983	0.0982	0.0982	0.0983	0.0985	0.0987	0.099	0.0993	0.0995	0.0998	0.1	0.1004	0.1008	0.1013	0.1016	0.1018	0.1018	0.1017	0.1014	0.101	0.1005	0.0998	0.0991	0.0985	0.0979	0.0973	0.0967	0.0963	0.096	0.0956	0.0949	0.0942	0.0933	0.0926	0.0921	0.0917	0.0913	0.0907	0.0899	0.089	0.0877	0.0866	0.0857	0.0848	0.0835	0.0811	0.0778	0.075	0.0729	0.0693	0.0643	0.0582	0.0504	0.0392	0.031	0.02	0.0107	-0.0002	-0.0096	-0.017	-0.0265	-0.0319	-0.0341	-0.0364	-0.0399	-0.0443	-0.0488	-0.0532	-0.0572	-0.061	-0.0643	-0.0673	-0.0699	-0.0725	-0.0748	-0.0769	-0.0791
-0.2155	-0.2153	-0.2151	-0.2147	-0.2139	-0.2122	-0.2096	-0.206	-0.2018	-0.1968	-0.1915	-0.1856	-0.1794	-0.1731	-0.1671	-0.1612	-0.1551	-0.1486	-0.1416	-0.1341	-0.1263	-0.1177	-0.1087	-0.099	-0.0876	-0.0736	-0.0584	-0.0436	-0.0278	-0.015	-0.0025	0.0093	0.0201	0.0309	0.0389	0.0453	0.0504	0.0555	0.0603	0.0645	0.0682	0.0713	0.0739	0.0762	0.0784	0.0804	0.0822	0.0839	0.0855	0.0871	0.0886	0.0899	0.0911	0.0924	0.0935	0.0945	0.0952	0.0959	0.0966	0.0973	0.0979	0.0983	0.0988	0.0992	0.0998	0.1004	0.1012	0.102	0.1027	0.1034	0.1042	0.105	0.1057	0.1062	0.1064	0.1066	0.1069	0.1071	0.1074	0.1078	0.1081	0.1084	0.1088	0.1091	0.1094	0.1098	0.1103	0.1108	0.1112	0.1114	0.1114	0.1113	0.111	0.1105	0.1099	0.1091	0.1084	0.1077	0.107	0.1064	0.1059	0.1054	0.105	0.1045	0.1039	0.1031	0.1024	0.1017	0.1011	0.1007	0.1002	0.0996	0.0988	0.0979	0.0965	0.0951	0.094	0.0929	0.0915	0.089	0.0854	0.0821	0.0795	0.0755	0.0701	0.0639	0.0554	0.0434	0.0357	0.0242	0.0137	0.0017	-0.0083	-0.0167	-0.0268	-0.0328	-0.0352	-0.0375	-0.041	-0.0457	-0.0505	-0.0553	-0.0597	-0.0639	-0.0675	-0.0707	-0.0736	-0.0764	-0.0788	-0.081	-0.083
-0.2366	-0.2364	-0.2358	-0.2346	-0.2328	-0.2301	-0.2265	-0.2222	-0.2172	-0.2116	-0.2058	-0.1995	-0.1929	-0.1862	-0.1798	-0.1733	-0.1667	-0.1597	-0.1522	-0.1443	-0.1359	-0.1268	-0.1173	-0.1072	-0.0952	-0.0809	-0.0652	-0.0494	-0.0321	-0.0189	-0.0063	0.0058	0.017	0.0286	0.0377	0.0453	0.0514	0.0571	0.0623	0.0669	0.0709	0.0744	0.0773	0.0799	0.0824	0.0846	0.0866	0.0886	0.0904	0.0922	0.0939	0.0954	0.0968	0.0982	0.0995	0.1006	0.1015	0.1023	0.1031	0.1038	0.1045	0.1051	0.1057	0.1063	0.107	0.1077	0.1086	0.1095	0.1103	0.1112	0.1121	0.113	0.1137	0.1143	0.1148	0.1152	0.1156	0.1161	0.1165	0.1169	0.1173	0.1177	0.118	0.1184	0.1188	0.1192	0.1197	0.1201	0.1204	0.1206	0.1206	0.1204	0.12	0.1195	0.1188	0.1181	0.1173	0.1165	0.1158	0.1152	0.1146	0.1141	0.1137	0.1131	0.1125	0.1118	0.111	0.1103	0.1097	0.1091	0.1085	0.1078	0.107	0.1059	0.1045	0.1029	0.1014	0.1001	0.0986	0.0961	0.0922	0.0885	0.0855	0.0809	0.0751	0.0687	0.0595	0.0469	0.039	0.0271	0.0155	0.0028	-0.0078	-0.017	-0.0276	-0.0346	-0.0378	-0.0403	-0.044	-0.0487	-0.0536	-0.0583	-0.0627	-0.0668	-0.0705	-0.0738	-0.0769	-0.0799	-0.0825	-0.0848	-0.0868
-0.2553	-0.2552	-0.254	-0.252	-0.2492	-0.2458	-0.2419	-0.2376	-0.2331	-0.2285	-0.2238	-0.2189	-0.214	-0.209	-0.2039	-0.1987	-0.1934	-0.1881	-0.1826	-0.1772	-0.1716	-0.166	-0.1603	-0.1545	-0.1486	-0.1425	-0.1363	-0.1302	-0.1241	-0.118	-0.1118	-0.1053	-0.0988	-0.0921	-0.0853	-0.0782	-0.0714	-0.0646	-0.0577	-0.0508	-0.0439	-0.0371	-0.0303	-0.0237	-0.017	-0.01	-0.0038	0.0033	0.0102	0.0183	0.0264	0.034	0.0413	0.0483	0.055	0.0612	0.0669	0.0721	0.0768	0.081	0.0847	0.0881	0.0913	0.0943	0.0972	0.1	0.1025	0.1049	0.107	0.1087	0.1102	0.1116	0.1129	0.1143	0.1158	0.1176	0.1194	0.1212	0.1227	0.124	0.1251	0.126	0.1269	0.1278	0.1286	0.1291	0.129	0.1283	0.1271	0.1256	0.1242	0.123	0.122	0.121	0.1198	0.1185	0.1172	0.1159	0.1143	0.1123	0.1097	0.1071	0.1049	0.1021	0.0979	0.0937	0.0898	0.0849	0.0801	0.0757	0.0708	0.0647	0.0574	0.0505	0.046	0.0419	0.0359	0.0295	0.0235	0.0171	0.0098	0.0034	-0.0027	-0.0072	-0.0126	-0.0179	-0.0232	-0.0284	-0.0334	-0.0376	-0.0409	-0.0436	-0.0461	-0.0488	-0.0516	-0.0544	-0.0572	-0.0599	-0.0625	-0.065	-0.0675	-0.0699	-0.0723	-0.0748	-0.0773	-0.0798	-0.0823	-0.0846	-0.0867	-0.0885	-0.0898
-0.2713	-0.2692	-0.2654	-0.2607	-0.2557	-0.2506	-0.2455	-0.2403	-0.2352	-0.2303	-0.2255	-0.2207	-0.2161	-0.2115	-0.2068	-0.2021	-0.1972	-0.1923	-0.1872	-0.1821	-0.1769	-0.1717	-0.1664	-0.1611	-0.1558	-0.1502	-0.1445	-0.1386	-0.1328	-0.1268	-0.1208	-0.1145	-0.1079	-0.1013	-0.0947	-0.088	-0.0811	-0.0741	-0.0669	-0.0597	-0.0527	-0.0459	-0.0388	-0.0319	-0.0249	-0.0181	-0.011	-0.0042	0.0026	0.0097	0.0175	0.0258	0.034	0.0419	0.0496	0.0573	0.064	0.0702	0.0759	0.0811	0.0858	0.0899	0.0936	0.097	0.1002	0.1033	0.1064	0.1091	0.1118	0.1141	0.1162	0.1179	0.1196	0.1213	0.1231	0.125	0.127	0.1291	0.1311	0.1329	0.1341	0.1351	0.1363	0.1372	0.1372	0.1363	0.1351	0.1337	0.1321	0.1307	0.1295	0.1284	0.1271	0.1256	0.124	0.122	0.1197	0.1171	0.1141	0.1112	0.1086	0.1056	0.1014	0.097	0.0922	0.0868	0.0818	0.0771	0.0718	0.0654	0.0581	0.0512	0.0459	0.0408	0.0346	0.0282	0.022	0.0155	0.0077	0.0025	-0.0031	-0.0077	-0.0128	-0.0182	-0.0235	-0.0285	-0.0335	-0.0387	-0.0437	-0.0479	-0.0515	-0.0545	-0.0573	-0.0598	-0.0619	-0.0639	-0.0656	-0.0671	-0.0685	-0.0699	-0.0714	-0.0731	-0.075	-0.0772	-0.0794	-0.0818	-0.0842	-0.0864	-0.0884	-0.0902	-0.0918
-0.2891	-0.2857	-0.2799	-0.2732	-0.2662	-0.2595	-0.2532	-0.2472	-0.2415	-0.2363	-0.2314	-0.2266	-0.222	-0.2176	-0.213	-0.2083	-0.2035	-0.1985	-0.1932	-0.1879	-0.1825	-0.1771	-0.1716	-0.1662	-0.1607	-0.155	-0.1492	-0.1432	-0.1373	-0.1309	-0.1246	-0.1182	-0.1113	-0.1045	-0.0978	-0.0907	-0.0836	-0.0764	-0.0689	-0.0614	-0.0543	-0.0473	-0.04	-0.0328	-0.0256	-0.0185	-0.0111	-0.0038	0.0031	0.0105	0.0186	0.027	0.0355	0.0437	0.0518	0.0598	0.0668	0.0731	0.0792	0.0848	0.0898	0.0942	0.0981	0.1016	0.105	0.1083	0.1114	0.1143	0.1172	0.1197	0.122	0.1241	0.1261	0.1281	0.13	0.132	0.134	0.1361	0.1384	0.1405	0.1417	0.1426	0.1441	0.1449	0.1443	0.1429	0.1415	0.1403	0.139	0.1376	0.1364	0.1352	0.1339	0.1324	0.1304	0.128	0.1252	0.122	0.1188	0.1157	0.1129	0.1099	0.1061	0.1015	0.0961	0.0904	0.0851	0.0797	0.0741	0.0676	0.0604	0.0533	0.0467	0.0403	0.0339	0.0273	0.0207	0.0139	0.0057	0.0014	-0.0035	-0.0082	-0.0135	-0.019	-0.0245	-0.0294	-0.0346	-0.0406	-0.0469	-0.0526	-0.0574	-0.0612	-0.0642	-0.0665	-0.0683	-0.0695	-0.0704	-0.071	-0.0715	-0.0721	-0.0728	-0.0738	-0.0754	-0.0773	-0.0795	-0.0819	-0.0844	-0.0869	-0.0891	-0.0912	-0.0929
-0.3145	-0.3133	-0.3087	-0.3017	-0.2935	-0.2852	-0.2776	-0.2707	-0.2644	-0.2586	-0.2532	-0.248	-0.2429	-0.2379	-0.2327	-0.2272	-0.2215	-0.2154	-0.209	-0.2025	-0.1959	-0.1892	-0.1826	-0.176	-0.1693	-0.1626	-0.1557	-0.1488	-0.1416	-0.1346	-0.1275	-0.1203	-0.1132	-0.1061	-0.0982	-0.0906	-0.0833	-0.0754	-0.0677	-0.0603	-0.0528	-0.0452	-0.0377	-0.0302	-0.0227	-0.0149	-0.0072	-0.0002	0.0082	0.0165	0.0252	0.0337	0.0421	0.0502	0.0578	0.0649	0.0716	0.0781	0.084	0.0893	0.094	0.0983	0.1022	0.1059	0.1094	0.1127	0.1158	0.1188	0.1215	0.1242	0.1266	0.1289	0.1312	0.1332	0.1352	0.1372	0.1391	0.1411	0.1433	0.1454	0.1468	0.1477	0.149	0.1505	0.151	0.1503	0.1491	0.1481	0.1474	0.1466	0.1454	0.1443	0.1432	0.1422	0.141	0.1395	0.1376	0.1352	0.1323	0.1291	0.1259	0.1227	0.1197	0.1168	0.1136	0.1094	0.1039	0.0981	0.0924	0.0866	0.0806	0.0741	0.067	0.0596	0.052	0.0443	0.0374	0.0304	0.0232	0.0158	0.0076	0.0037	-0.0014	-0.0067	-0.0128	-0.0187	-0.0245	-0.0296	-0.0357	-0.0427	-0.0498	-0.0564	-0.0618	-0.0658	-0.0686	-0.0705	-0.0716	-0.0722	-0.0724	-0.0726	-0.0728	-0.0734	-0.0744	-0.0761	-0.0782	-0.0807	-0.0835	-0.0864	-0.0893	-0.0919	-0.0937
-0.3503	-0.3485	-0.3436	-0.3377	-0.3312	-0.3249	-0.3187	-0.3127	-0.3068	-0.3008	-0.295	-0.2891	-0.2831	-0.2771	-0.2709	-0.2643	-0.2576	-0.2506	-0.2433	-0.2359	-0.2285	-0.221	-0.2135	-0.206	-0.1985	-0.191	-0.1836	-0.1761	-0.1686	-0.161	-0.1536	-0.1463	-0.1389	-0.1317	-0.1247	-0.1172	-0.1098	-0.1022	-0.0944	-0.0867	-0.0791	-0.0716	-0.064	-0.0563	-0.0487	-0.041	-0.0331	-0.0249	-0.0176	-0.0097	-0.0015	0.0069	0.0155	0.0238	0.0321	0.04	0.048	0.0558	0.0634	0.0708	0.0775	0.0836	0.0894	0.0947	0.0997	0.1042	0.1084	0.1123	0.116	0.1195	0.123	0.1263	0.1294	0.1324	0.1351	0.1377	0.1402	0.1426	0.1454	0.1479	0.1498	0.1515	0.1537	0.1553	0.1553	0.1548	0.1548	0.1546	0.1536	0.1524	0.1514	0.1505	0.1494	0.148	0.1462	0.144	0.1413	0.1382	0.135	0.1317	0.1285	0.1255	0.1224	0.1183	0.113	0.1077	0.1022	0.0965	0.0906	0.0844	0.0778	0.0706	0.0631	0.0553	0.0481	0.041	0.0335	0.0262	0.0179	0.0131	0.0076	0.0014	-0.0052	-0.0113	-0.0171	-0.0227	-0.0285	-0.034	-0.04	-0.0468	-0.0535	-0.0589	-0.0629	-0.0656	-0.0674	-0.0686	-0.0695	-0.0702	-0.0709	-0.0716	-0.0725	-0.0738	-0.0755	-0.0775	-0.0797	-0.0822	-0.0848	-0.0875	-0.09	-0.0924	-0.0944
-0.3882	-0.389	-0.3867	-0.3834	-0.3792	-0.3747	-0.3698	-0.3644	-0.3586	-0.3524	-0.3458	-0.3389	-0.3316	-0.324	-0.3161	-0.3079	-0.2994	-0.2908	-0.2818	-0.2728	-0.2637	-0.2546	-0.2455	-0.2364	-0.2273	-0.2183	-0.2095	-0.2007	-0.1922	-0.1837	-0.1756	-0.1677	-0.16	-0.1526	-0.1454	-0.1379	-0.1305	-0.1226	-0.1148	-0.1072	-0.0993	-0.0915	-0.0836	-0.0757	-0.0679	-0.06	-0.0519	-0.0436	-0.0358	-0.0278	-0.0197	-0.0114	-0.003	0.0052	0.0135	0.0211	0.0298	0.0388	0.0474	0.0558	0.0637	0.0713	0.0786	0.0853	0.0915	0.0971	0.1021	0.1067	0.1111	0.1153	0.1195	0.1235	0.1273	0.131	0.1342	0.1374	0.1402	0.143	0.1459	0.1487	0.1512	0.1536	0.1563	0.1585	0.1596	0.1605	0.1617	0.1621	0.1613	0.1602	0.1596	0.1588	0.1579	0.1566	0.1552	0.1535	0.1515	0.149	0.146	0.1427	0.1395	0.1364	0.1333	0.1296	0.1251	0.1202	0.115	0.1095	0.1037	0.0977	0.0914	0.0846	0.0772	0.0696	0.0621	0.0545	0.0467	0.039	0.031	0.0248	0.0178	0.0105	0.003	-0.0036	-0.0096	-0.0159	-0.0221	-0.0265	-0.031	-0.0374	-0.0443	-0.0504	-0.0549	-0.0582	-0.0606	-0.0625	-0.0642	-0.0658	-0.0676	-0.0694	-0.0714	-0.0734	-0.0757	-0.078	-0.0804	-0.0829	-0.0855	-0.0881	-0.0907	-0.093	-0.0951
-0.417	-0.4191	-0.4199	-0.4195	-0.4179	-0.4151	-0.4114	-0.4066	-0.401	-0.3945	-0.3872	-0.3793	-0.3707	-0.3615	-0.3518	-0.3417	-0.3312	-0.3205	-0.3094	-0.2983	-0.287	-0.2757	-0.2644	-0.2532	-0.2422	-0.2315	-0.221	-0.2109	-0.2013	-0.1922	-0.1836	-0.1756	-0.1679	-0.1602	-0.1524	-0.1444	-0.1364	-0.1287	-0.1209	-0.1125	-0.1042	-0.0959	-0.0877	-0.0798	-0.0715	-0.0632	-0.0548	-0.0467	-0.0385	-0.0302	-0.0218	-0.0136	-0.0054	0.0025	0.0097	0.0199	0.0291	0.0385	0.0474	0.0559	0.0642	0.0723	0.0797	0.0865	0.0926	0.098	0.1029	0.1076	0.1122	0.1166	0.1209	0.1249	0.1288	0.1324	0.1357	0.1388	0.1417	0.1444	0.1471	0.1497	0.1524	0.155	0.1576	0.1602	0.1624	0.1641	0.1659	0.168	0.1691	0.1688	0.1679	0.1674	0.1671	0.1664	0.1655	0.1645	0.1633	0.1621	0.1608	0.159	0.1564	0.1533	0.1501	0.1469	0.1438	0.1405	0.1367	0.1323	0.1272	0.1218	0.116	0.1101	0.1039	0.0971	0.0899	0.0823	0.0744	0.0662	0.0579	0.0496	0.042	0.0338	0.0254	0.0168	0.0083	0.0014	-0.005	-0.0123	-0.0183	-0.021	-0.0258	-0.0326	-0.0397	-0.0454	-0.0498	-0.0532	-0.056	-0.0588	-0.0618	-0.0649	-0.068	-0.0711	-0.0741	-0.077	-0.0798	-0.0825	-0.0853	-0.0882	-0.0912	-0.0938	-0.0958
-0.4283	-0.4316	-0.432	-0.4317	-0.4305	-0.4284	-0.4252	-0.4206	-0.415	-0.4083	-0.4006	-0.3924	-0.3834	-0.3738	-0.3639	-0.3537	-0.3432	-0.3326	-0.3219	-0.3111	-0.3003	-0.2894	-0.2785	-0.2676	-0.2568	-0.2461	-0.2357	-0.2256	-0.2159	-0.2065	-0.1975	-0.1889	-0.1808	-0.1731	-0.1655	-0.1582	-0.1507	-0.1424	-0.1346	-0.1271	-0.1188	-0.1106	-0.1024	-0.094	-0.086	-0.0777	-0.0694	-0.061	-0.0528	-0.0447	-0.0365	-0.0282	-0.02	-0.012	-0.0037	0.0036	0.0131	0.0233	0.033	0.0426	0.0517	0.0607	0.0696	0.0779	0.0856	0.0925	0.0986	0.1041	0.1093	0.1144	0.1193	0.1241	0.1286	0.133	0.1371	0.1408	0.1444	0.1476	0.1507	0.1538	0.1573	0.1606	0.1637	0.1665	0.1689	0.1716	0.1743	0.175	0.1743	0.1739	0.1738	0.1731	0.1721	0.1711	0.1697	0.1684	0.1673	0.1657	0.163	0.1597	0.1565	0.1532	0.1498	0.1464	0.1427	0.1383	0.1333	0.128	0.1223	0.1165	0.1104	0.1038	0.097	0.0898	0.0818	0.0735	0.0652	0.057	0.0496	0.0411	0.0321	0.023	0.0142	0.0067	0.0007	-0.0064	-0.0133	-0.0163	-0.0188	-0.024	-0.0306	-0.037	-0.0421	-0.0463	-0.0497	-0.0527	-0.0559	-0.0594	-0.0629	-0.0665	-0.0699	-0.0732	-0.0763	-0.0791	-0.0817	-0.0843	-0.0869	-0.0895	-0.0921	-0.0943	-0.0964
-0.4241	-0.4265	-0.4258	-0.425	-0.4236	-0.4214	-0.4181	-0.4135	-0.4077	-0.4008	-0.393	-0.3847	-0.3758	-0.3662	-0.3563	-0.3461	-0.3357	-0.3253	-0.3148	-0.3043	-0.2936	-0.283	-0.2723	-0.2616	-0.251	-0.2406	-0.2303	-0.2204	-0.2108	-0.2016	-0.1926	-0.184	-0.1757	-0.1678	-0.1601	-0.1528	-0.1452	-0.1369	-0.1291	-0.1215	-0.1132	-0.105	-0.0967	-0.0882	-0.08	-0.0715	-0.0631	-0.0549	-0.0467	-0.0386	-0.0301	-0.0217	-0.0135	-0.0054	0.0029	0.0103	0.0198	0.0299	0.0394	0.0488	0.0577	0.0665	0.0752	0.0834	0.091	0.0979	0.104	0.1096	0.1148	0.1199	0.1247	0.1295	0.1339	0.1383	0.1424	0.1463	0.1499	0.1533	0.1564	0.1595	0.1632	0.1666	0.1695	0.1719	0.1743	0.177	0.1796	0.1799	0.1793	0.1793	0.1795	0.1785	0.1772	0.1761	0.1743	0.1728	0.1717	0.17	0.1673	0.1641	0.1608	0.1575	0.1538	0.15	0.146	0.1416	0.1365	0.1311	0.1252	0.1192	0.113	0.1063	0.0994	0.0922	0.0841	0.0757	0.0672	0.059	0.0516	0.0429	0.0335	0.0242	0.0153	0.0074	0.0016	-0.0056	-0.0125	-0.0156	-0.0181	-0.023	-0.0292	-0.0353	-0.0404	-0.0446	-0.0483	-0.0516	-0.0551	-0.0589	-0.0627	-0.0665	-0.0701	-0.0735	-0.0766	-0.0795	-0.0822	-0.0848	-0.0874	-0.0901	-0.0927	-0.0948	-0.0968
-0.4095	-0.4098	-0.4072	-0.4048	-0.4024	-0.3996	-0.3959	-0.3909	-0.3849	-0.3778	-0.3702	-0.3621	-0.3536	-0.3444	-0.335	-0.3254	-0.3156	-0.3058	-0.296	-0.2862	-0.2762	-0.2663	-0.2563	-0.2463	-0.2364	-0.2266	-0.2169	-0.2076	-0.1985	-0.1896	-0.1808	-0.1722	-0.1638	-0.1558	-0.148	-0.1406	-0.1331	-0.1247	-0.1168	-0.1091	-0.101	-0.0928	-0.0844	-0.0759	-0.0674	-0.0588	-0.0505	-0.0424	-0.0344	-0.026	-0.0173	-0.0087	-0.0005	0.0076	0.016	0.0238	0.033	0.0426	0.0517	0.0605	0.0688	0.077	0.0851	0.0928	0.1	0.1066	0.1126	0.118	0.123	0.128	0.1325	0.137	0.1412	0.1454	0.1495	0.1533	0.157	0.1604	0.1634	0.1666	0.1703	0.1737	0.1762	0.178	0.1799	0.1823	0.1843	0.1842	0.1837	0.1842	0.1843	0.1829	0.1814	0.1802	0.1778	0.1758	0.1744	0.1726	0.1697	0.1665	0.1633	0.1598	0.1557	0.1514	0.147	0.1423	0.137	0.1314	0.1251	0.1188	0.1124	0.1056	0.0985	0.0912	0.083	0.0744	0.066	0.0577	0.0503	0.0417	0.0325	0.0231	0.0144	0.0062	0.0005	-0.0064	-0.0133	-0.017	-0.02	-0.0247	-0.0303	-0.0359	-0.0408	-0.045	-0.0488	-0.0523	-0.0559	-0.0597	-0.0636	-0.0673	-0.0708	-0.0741	-0.0771	-0.0798	-0.0825	-0.0851	-0.0879	-0.0906	-0.0932	-0.0953	-0.0973
-0.3893	-0.3869	-0.3819	-0.3775	-0.3737	-0.37	-0.3656	-0.3602	-0.3539	-0.3468	-0.3393	-0.3316	-0.3236	-0.3151	-0.3065	-0.2976	-0.2887	-0.2798	-0.271	-0.2621	-0.2531	-0.2442	-0.2351	-0.2261	-0.2171	-0.2082	-0.1993	-0.1907	-0.1822	-0.1738	-0.1653	-0.1568	-0.1483	-0.1403	-0.1325	-0.125	-0.1174	-0.109	-0.101	-0.0932	-0.0851	-0.0771	-0.0687	-0.0601	-0.0515	-0.0429	-0.0345	-0.0265	-0.0187	-0.0101	-0.001	0.0076	0.016	0.0242	0.0326	0.0408	0.0496	0.0585	0.067	0.0751	0.0826	0.09	0.0972	0.1042	0.1108	0.117	0.1226	0.1279	0.1326	0.1372	0.1415	0.1456	0.1495	0.1534	0.1574	0.1611	0.1648	0.1682	0.1711	0.1743	0.178	0.1811	0.1832	0.1843	0.1855	0.1874	0.1887	0.1881	0.1877	0.1886	0.1886	0.1868	0.1849	0.1835	0.1805	0.178	0.1762	0.1741	0.171	0.1678	0.1646	0.161	0.1564	0.1515	0.1465	0.1414	0.1359	0.13	0.1234	0.1167	0.11	0.103	0.0957	0.0881	0.0799	0.0713	0.0628	0.0546	0.0471	0.0388	0.03	0.0208	0.0123	0.0039	-0.0017	-0.0083	-0.015	-0.0194	-0.0233	-0.0279	-0.033	-0.038	-0.0426	-0.0467	-0.0505	-0.0541	-0.0577	-0.0613	-0.065	-0.0685	-0.0717	-0.0748	-0.0775	-0.0802	-0.0828	-0.0855	-0.0883	-0.0911	-0.0937	-0.0958	-0.0977
-0.3683	-0.3631	-0.3557	-0.3493	-0.3442	-0.3395	-0.3344	-0.3286	-0.322	-0.3148	-0.3076	-0.3003	-0.2929	-0.2851	-0.2772	-0.2692	-0.2612	-0.2532	-0.2453	-0.2374	-0.2295	-0.2215	-0.2134	-0.2054	-0.1973	-0.1892	-0.1812	-0.1734	-0.1655	-0.1575	-0.1493	-0.1409	-0.1325	-0.1244	-0.1165	-0.109	-0.1013	-0.0929	-0.0848	-0.0769	-0.069	-0.061	-0.0527	-0.0441	-0.0353	-0.0266	-0.0183	-0.0102	-0.0026	0.0061	0.0155	0.0243	0.0327	0.041	0.0496	0.058	0.0664	0.0747	0.0826	0.0899	0.0967	0.1032	0.1096	0.1158	0.1217	0.1274	0.1328	0.1377	0.1422	0.1465	0.1504	0.1542	0.1578	0.1614	0.1653	0.1689	0.1726	0.176	0.1788	0.1821	0.1856	0.1884	0.19	0.1904	0.191	0.1923	0.1928	0.1919	0.1918	0.1928	0.1926	0.1903	0.1881	0.1865	0.183	0.1799	0.1777	0.1752	0.172	0.1687	0.1654	0.1617	0.1567	0.1512	0.1456	0.1401	0.1344	0.1282	0.1213	0.1143	0.1072	0.0999	0.0924	0.0846	0.0763	0.0678	0.0592	0.0511	0.0434	0.0356	0.0271	0.0182	0.0101	0.0015	-0.0041	-0.0103	-0.017	-0.0222	-0.0269	-0.0315	-0.0362	-0.0407	-0.045	-0.049	-0.0527	-0.0563	-0.0597	-0.0632	-0.0666	-0.0698	-0.0727	-0.0755	-0.078	-0.0805	-0.0831	-0.0858	-0.0887	-0.0915	-0.0941	-0.0963	-0.0981
-0.3514	-0.3483	-0.3402	-0.3311	-0.3235	-0.3172	-0.3113	-0.305	-0.298	-0.2907	-0.2834	-0.2762	-0.269	-0.2615	-0.2539	-0.2462	-0.2385	-0.2308	-0.2231	-0.2154	-0.2076	-0.1997	-0.1918	-0.1839	-0.176	-0.1681	-0.1603	-0.1524	-0.1443	-0.136	-0.1275	-0.1189	-0.1107	-0.1026	-0.0945	-0.0862	-0.0779	-0.0697	-0.0616	-0.0535	-0.0453	-0.0368	-0.028	-0.0191	-0.0105	-0.0021	0.0059	0.0138	0.0234	0.0329	0.0416	0.0501	0.0586	0.0672	0.0755	0.0833	0.0908	0.0979	0.1042	0.1102	0.1158	0.1213	0.1266	0.1318	0.1368	0.1416	0.1461	0.1502	0.154	0.1575	0.1608	0.164	0.1671	0.1704	0.1738	0.1771	0.1804	0.1833	0.1858	0.1886	0.1916	0.1941	0.1957	0.1962	0.196	0.1962	0.1968	0.197	0.1963	0.196	0.1967	0.1972	0.1958	0.1932	0.1911	0.1892	0.1855	0.1822	0.1797	0.1771	0.1739	0.1706	0.1673	0.1636	0.1586	0.1527	0.1467	0.1408	0.1347	0.1282	0.1209	0.1134	0.1059	0.0982	0.0902	0.0819	0.0735	0.0648	0.056	0.0476	0.0397	0.0318	0.0235	0.0147	0.0065	-0.0023	-0.0076	-0.0143	-0.0208	-0.027	-0.0323	-0.0371	-0.0415	-0.0457	-0.0498	-0.0538	-0.0577	-0.0614	-0.065	-0.0684	-0.0715	-0.0743	-0.077	-0.0795	-0.0821	-0.0849	-0.088	-0.0912	-0.0942	-0.0968	-0.0986
-0.3423	-0.3329	-0.3225	-0.314	-0.3073	-0.3015	-0.2958	-0.2896	-0.2827	-0.2755	-0.2684	-0.2614	-0.2545	-0.2475	-0.2405	-0.2336	-0.2267	-0.2199	-0.2131	-0.2064	-0.1996	-0.1927	-0.1858	-0.1789	-0.172	-0.1649	-0.1579	-0.1509	-0.1436	-0.1359	-0.1281	-0.1199	-0.1115	-0.1034	-0.0955	-0.0879	-0.08	-0.0715	-0.0632	-0.0551	-0.0472	-0.0393	-0.0312	-0.0227	-0.0138	-0.0052	0.0032	0.0117	0.0195	0.0285	0.038	0.0468	0.0554	0.0639	0.0726	0.0814	0.0893	0.0967	0.1038	0.1101	0.1161	0.1217	0.127	0.1322	0.1374	0.1424	0.1473	0.152	0.1562	0.1601	0.1638	0.1672	0.1706	0.1741	0.1778	0.1816	0.1854	0.1888	0.1917	0.1949	0.1981	0.2004	0.2012	0.2009	0.2008	0.2011	0.201	0.2007	0.2013	0.2017	0.2003	0.1974	0.1949	0.1927	0.1887	0.1851	0.1822	0.1792	0.1758	0.1723	0.1687	0.1644	0.1589	0.1527	0.1466	0.1405	0.1343	0.1276	0.1203	0.1129	0.1053	0.0976	0.0897	0.0815	0.0732	0.0648	0.0562	0.0479	0.0398	0.0326	0.0246	0.0161	0.0083	-0.0004	-0.0067	-0.0124	-0.0187	-0.025	-0.0309	-0.0359	-0.0404	-0.0444	-0.0482	-0.052	-0.0556	-0.0592	-0.0626	-0.0658	-0.0688	-0.0716	-0.0742	-0.0767	-0.0791	-0.0815	-0.084	-0.0866	-0.0895	-0.0922	-0.0947	-0.097	-0.0991
-0.3399	-0.3295	-0.3188	-0.3102	-0.3036	-0.2979	-0.2922	-0.2861	-0.2792	-0.272	-0.2648	-0.2576	-0.2506	-0.2435	-0.2366	-0.2297	-0.2229	-0.2162	-0.2095	-0.2028	-0.1961	-0.1893	-0.1824	-0.1756	-0.1687	-0.1617	-0.1547	-0.1477	-0.1403	-0.1325	-0.1246	-0.1165	-0.1082	-0.1001	-0.0921	-0.0844	-0.0765	-0.0679	-0.0595	-0.0514	-0.0434	-0.0355	-0.0274	-0.0189	-0.01	-0.0016	0.0069	0.0157	0.0239	0.033	0.0424	0.0511	0.0598	0.0684	0.0771	0.0859	0.0936	0.1009	0.1079	0.1142	0.1201	0.1256	0.131	0.1361	0.1412	0.1462	0.151	0.1556	0.1599	0.1638	0.1676	0.1711	0.1747	0.1782	0.1821	0.186	0.19	0.1934	0.1964	0.1997	0.2028	0.2047	0.2053	0.2051	0.2049	0.2051	0.2052	0.2057	0.2067	0.2065	0.2043	0.2012	0.1986	0.1962	0.1923	0.1887	0.1856	0.1825	0.1791	0.1755	0.1716	0.1669	0.1613	0.1551	0.1489	0.1428	0.1364	0.1295	0.1222	0.1147	0.107	0.0991	0.091	0.0828	0.0745	0.0661	0.0574	0.0491	0.0407	0.0335	0.0256	0.0171	0.0093	0.0006	-0.0062	-0.0119	-0.0181	-0.0246	-0.0306	-0.0359	-0.0406	-0.0447	-0.0485	-0.0522	-0.0559	-0.0595	-0.0629	-0.0662	-0.0692	-0.072	-0.0746	-0.0772	-0.0796	-0.082	-0.0845	-0.0871	-0.0898	-0.0925	-0.095	-0.0974	-0.0997
-0.3419	-0.3311	-0.3206	-0.3126	-0.3062	-0.3007	-0.2952	-0.2892	-0.2824	-0.2752	-0.2678	-0.2604	-0.2531	-0.2459	-0.2387	-0.2318	-0.2249	-0.218	-0.2112	-0.2043	-0.1974	-0.1904	-0.1834	-0.1764	-0.1693	-0.1622	-0.1551	-0.1479	-0.1402	-0.1322	-0.1242	-0.1161	-0.1078	-0.0997	-0.0918	-0.084	-0.076	-0.0673	-0.0588	-0.0506	-0.0426	-0.0346	-0.0265	-0.0182	-0.0093	-0.001	0.0077	0.0168	0.0255	0.0345	0.0437	0.0524	0.0611	0.0698	0.0785	0.0872	0.0949	0.1022	0.1092	0.1156	0.1217	0.1274	0.1329	0.1381	0.1433	0.1483	0.1532	0.1578	0.1622	0.1663	0.1702	0.1739	0.1777	0.1815	0.1855	0.1896	0.1936	0.1971	0.2003	0.2036	0.2066	0.2084	0.2088	0.2087	0.2087	0.2089	0.2094	0.2109	0.2121	0.2111	0.2081	0.2049	0.2024	0.1997	0.1961	0.1926	0.1895	0.1863	0.1828	0.1792	0.1749	0.1699	0.1642	0.1582	0.152	0.1458	0.1393	0.1323	0.125	0.1175	0.1097	0.1017	0.0935	0.0852	0.0769	0.0686	0.0598	0.0513	0.0427	0.0354	0.0274	0.0189	0.0109	0.0023	-0.0051	-0.0107	-0.0168	-0.0234	-0.0294	-0.035	-0.0401	-0.0443	-0.0481	-0.0519	-0.0556	-0.0593	-0.0628	-0.0661	-0.0692	-0.072	-0.0748	-0.0775	-0.0801	-0.0826	-0.0851	-0.0877	-0.0902	-0.0928	-0.0953	-0.0977	-0.1003
-0.346	-0.3353	-0.3255	-0.3181	-0.3122	-0.3069	-0.3015	-0.2956	-0.2888	-0.2816	-0.2741	-0.2665	-0.2588	-0.2514	-0.244	-0.2368	-0.2297	-0.2226	-0.2155	-0.2083	-0.2012	-0.1939	-0.1866	-0.1793	-0.172	-0.1646	-0.1573	-0.1498	-0.1418	-0.1336	-0.1254	-0.1173	-0.1091	-0.101	-0.093	-0.0852	-0.0771	-0.0682	-0.0597	-0.0515	-0.0433	-0.0353	-0.0273	-0.0189	-0.0101	-0.0019	0.0069	0.0164	0.0255	0.0346	0.0435	0.0521	0.0609	0.0696	0.0783	0.0869	0.0946	0.102	0.1091	0.1157	0.122	0.1279	0.1337	0.1392	0.1445	0.1496	0.1546	0.1592	0.1637	0.168	0.1722	0.1762	0.1802	0.1843	0.1885	0.1927	0.1968	0.2004	0.2038	0.207	0.2099	0.2115	0.2119	0.2121	0.2124	0.2127	0.2137	0.2159	0.2173	0.2155	0.2119	0.2086	0.2061	0.2033	0.1999	0.1966	0.1935	0.1903	0.1868	0.183	0.1784	0.173	0.1673	0.1614	0.1554	0.1491	0.1425	0.1354	0.1281	0.1206	0.1128	0.1047	0.0965	0.0882	0.0799	0.0715	0.0627	0.054	0.0453	0.0377	0.0295	0.0209	0.0128	0.0042	-0.0035	-0.0092	-0.0152	-0.0217	-0.0277	-0.0336	-0.039	-0.0435	-0.0475	-0.0513	-0.055	-0.0588	-0.0623	-0.0657	-0.0689	-0.0719	-0.0749	-0.0777	-0.0804	-0.083	-0.0856	-0.0881	-0.0906	-0.0931	-0.0955	-0.098	-0.1008
-0.3499	-0.3454	-0.3361	-0.328	-0.3213	-0.3154	-0.3096	-0.3035	-0.2967	-0.2894	-0.2817	-0.2737	-0.2656	-0.2576	-0.2496	-0.2418	-0.234	-0.2262	-0.2182	-0.2102	-0.2021	-0.1939	-0.1857	-0.1775	-0.1693	-0.1612	-0.1529	-0.1441	-0.1353	-0.1266	-0.1182	-0.1099	-0.1017	-0.0934	-0.0851	-0.0763	-0.0675	-0.059	-0.0506	-0.0422	-0.0339	-0.0256	-0.017	-0.0082	0	0.0095	0.0192	0.0286	0.0378	0.0466	0.0553	0.0642	0.0729	0.0814	0.0894	0.097	0.1043	0.1112	0.1177	0.124	0.1299	0.1357	0.1411	0.1463	0.1513	0.1561	0.1606	0.165	0.1692	0.1733	0.1773	0.1813	0.1853	0.1893	0.1931	0.1969	0.2005	0.2038	0.2069	0.2097	0.2123	0.2141	0.2148	0.215	0.2154	0.2159	0.2164	0.2175	0.2198	0.2218	0.2212	0.218	0.2143	0.2116	0.2093	0.2065	0.2035	0.2006	0.1976	0.1945	0.1911	0.1874	0.1828	0.1773	0.1715	0.1658	0.1599	0.1536	0.1468	0.1395	0.132	0.1244	0.1163	0.108	0.0995	0.0909	0.0824	0.0738	0.0647	0.0555	0.0467	0.0385	0.0299	0.0211	0.0125	0.0036	-0.0041	-0.0096	-0.0164	-0.0229	-0.0292	-0.0355	-0.0409	-0.0453	-0.0495	-0.0536	-0.0577	-0.0617	-0.0655	-0.069	-0.0723	-0.0756	-0.0787	-0.0818	-0.0846	-0.0874	-0.09	-0.0927	-0.0955	-0.0985	-0.1013
-0.3518	-0.3428	-0.3345	-0.3281	-0.3224	-0.317	-0.3113	-0.3052	-0.2985	-0.2912	-0.2836	-0.2757	-0.2678	-0.2599	-0.2522	-0.2446	-0.2371	-0.2297	-0.2221	-0.2145	-0.2069	-0.1992	-0.1914	-0.1837	-0.1759	-0.1681	-0.1603	-0.1523	-0.1438	-0.1354	-0.1269	-0.1188	-0.1107	-0.1026	-0.0944	-0.0866	-0.0783	-0.0693	-0.0608	-0.0525	-0.0442	-0.0361	-0.028	-0.0196	-0.0107	-0.0024	0.0066	0.0165	0.0261	0.0352	0.0438	0.0524	0.0613	0.07	0.0787	0.087	0.0948	0.1024	0.1096	0.1164	0.1232	0.1295	0.1358	0.1416	0.1472	0.1526	0.1577	0.1625	0.1672	0.1718	0.1764	0.181	0.1856	0.1903	0.1947	0.1988	0.2027	0.2066	0.2103	0.2133	0.216	0.2176	0.218	0.2186	0.2194	0.2204	0.2223	0.2251	0.2257	0.2228	0.2186	0.2155	0.213	0.21	0.207	0.2039	0.2008	0.1975	0.1939	0.1898	0.1846	0.1787	0.1728	0.1672	0.1612	0.1548	0.1479	0.1407	0.1334	0.1259	0.1179	0.1097	0.1014	0.0931	0.0846	0.0763	0.0674	0.0584	0.0494	0.0415	0.0329	0.0242	0.0157	0.0071	-0.0006	-0.0065	-0.0123	-0.0185	-0.0244	-0.0307	-0.0368	-0.0418	-0.0461	-0.0501	-0.0539	-0.0577	-0.0614	-0.065	-0.0683	-0.0714	-0.0746	-0.0776	-0.0807	-0.0836	-0.0863	-0.0888	-0.0911	-0.0935	-0.096	-0.0986	-0.1017
-0.3518	-0.3441	-0.3365	-0.3302	-0.3243	-0.3184	-0.3123	-0.3058	-0.2989	-0.2917	-0.2841	-0.2763	-0.2684	-0.2605	-0.2527	-0.2451	-0.2375	-0.23	-0.2223	-0.2146	-0.2069	-0.1991	-0.1913	-0.1835	-0.1756	-0.1677	-0.1597	-0.1516	-0.1431	-0.1346	-0.1261	-0.1179	-0.1098	-0.1017	-0.0935	-0.0855	-0.0773	-0.0683	-0.0597	-0.0514	-0.0431	-0.035	-0.0268	-0.0183	-0.0094	-0.0009	0.0082	0.0182	0.0279	0.0369	0.0455	0.0541	0.0631	0.0718	0.0804	0.0887	0.0965	0.104	0.1112	0.1181	0.1249	0.1314	0.1378	0.1438	0.1495	0.155	0.1602	0.165	0.1698	0.1745	0.1792	0.184	0.1889	0.1938	0.1983	0.2021	0.2057	0.2098	0.2136	0.2165	0.2191	0.2208	0.2213	0.2219	0.223	0.2244	0.2266	0.229	0.2288	0.2257	0.2217	0.2185	0.2161	0.2131	0.2101	0.207	0.2038	0.2005	0.1968	0.1925	0.1871	0.1811	0.1751	0.1694	0.1633	0.1568	0.1498	0.1425	0.1351	0.1275	0.1195	0.1112	0.1029	0.0945	0.086	0.0776	0.0687	0.0597	0.0506	0.0424	0.0337	0.0249	0.0164	0.0077	0.0005	-0.0054	-0.0113	-0.0172	-0.0233	-0.0297	-0.0359	-0.0411	-0.0456	-0.0497	-0.0536	-0.0574	-0.0611	-0.0647	-0.068	-0.0711	-0.0743	-0.0774	-0.0806	-0.0836	-0.0864	-0.0889	-0.0913	-0.0937	-0.0962	-0.0989	-0.102
-0.3503	-0.3441	-0.3373	-0.3309	-0.3245	-0.318	-0.3112	-0.3042	-0.2972	-0.2899	-0.2825	-0.2748	-0.267	-0.2592	-0.2515	-0.2439	-0.2363	-0.2287	-0.221	-0.2133	-0.2055	-0.1977	-0.1898	-0.182	-0.1742	-0.1663	-0.1581	-0.1498	-0.1414	-0.133	-0.1245	-0.1163	-0.1082	-0.1	-0.0918	-0.0837	-0.0754	-0.0664	-0.0579	-0.0496	-0.0413	-0.0332	-0.0249	-0.0163	-0.0072	0.0015	0.0107	0.0207	0.0304	0.0393	0.0479	0.0567	0.0657	0.0744	0.083	0.0913	0.099	0.1065	0.1136	0.1205	0.1273	0.1339	0.1403	0.1464	0.1523	0.1578	0.163	0.1679	0.1726	0.1774	0.1822	0.1873	0.1925	0.1976	0.2021	0.2056	0.2088	0.2131	0.217	0.2198	0.2223	0.2241	0.2247	0.2252	0.2266	0.2285	0.2309	0.2326	0.2314	0.2281	0.2245	0.2215	0.2189	0.216	0.213	0.2099	0.2066	0.2032	0.1993	0.1949	0.1893	0.1832	0.1772	0.1713	0.1651	0.1584	0.1513	0.1439	0.1364	0.1287	0.1206	0.1123	0.1039	0.0955	0.0869	0.0784	0.0695	0.0605	0.0513	0.043	0.0342	0.0253	0.0167	0.0079	0.0014	-0.0045	-0.0104	-0.016	-0.0223	-0.0288	-0.0351	-0.0406	-0.0452	-0.0494	-0.0533	-0.0572	-0.0609	-0.0645	-0.0677	-0.0708	-0.074	-0.0771	-0.0804	-0.0835	-0.0864	-0.089	-0.0915	-0.0939	-0.0964	-0.0992	-0.1022
-0.3478	-0.3433	-0.3372	-0.3306	-0.3236	-0.3163	-0.3088	-0.3013	-0.2939	-0.2867	-0.2795	-0.272	-0.2644	-0.2567	-0.2491	-0.2414	-0.2339	-0.2263	-0.2186	-0.2109	-0.2032	-0.1953	-0.1875	-0.1797	-0.172	-0.1641	-0.1558	-0.1474	-0.1391	-0.1308	-0.1224	-0.1141	-0.106	-0.0978	-0.0895	-0.0812	-0.0729	-0.064	-0.0555	-0.0472	-0.0389	-0.0308	-0.0224	-0.0136	-0.0045	0.0045	0.0139	0.0238	0.0333	0.0422	0.0509	0.0597	0.0688	0.0775	0.086	0.0943	0.102	0.1094	0.1164	0.1233	0.1302	0.1368	0.1432	0.1494	0.1553	0.1609	0.1661	0.171	0.1758	0.1806	0.1855	0.1908	0.1962	0.2016	0.2061	0.2092	0.2119	0.2164	0.2204	0.223	0.2254	0.2274	0.2281	0.2286	0.2302	0.2326	0.2353	0.236	0.2336	0.2303	0.2272	0.2243	0.2217	0.2189	0.2158	0.2125	0.2091	0.2056	0.2017	0.197	0.1913	0.1851	0.179	0.173	0.1665	0.1597	0.1525	0.145	0.1373	0.1295	0.1213	0.113	0.1046	0.0961	0.0874	0.0789	0.07	0.061	0.0517	0.0432	0.0343	0.0254	0.0167	0.0078	0.0022	-0.0038	-0.0096	-0.015	-0.0215	-0.0281	-0.0344	-0.0401	-0.0449	-0.0492	-0.0532	-0.0571	-0.0608	-0.0643	-0.0675	-0.0706	-0.0736	-0.0768	-0.0801	-0.0834	-0.0864	-0.0891	-0.0916	-0.0941	-0.0966	-0.0994	-0.1024
-0.3448	-0.344	-0.3402	-0.3341	-0.3263	-0.3176	-0.3085	-0.2997	-0.2917	-0.2842	-0.277	-0.2697	-0.2621	-0.2543	-0.2464	-0.2384	-0.2304	-0.2223	-0.2141	-0.2058	-0.1974	-0.1889	-0.1805	-0.1722	-0.1639	-0.155	-0.146	-0.1372	-0.1286	-0.1199	-0.1113	-0.103	-0.0946	-0.086	-0.0771	-0.0682	-0.0595	-0.051	-0.0426	-0.0342	-0.0258	-0.017	-0.0078	0.0015	0.0109	0.0206	0.0304	0.0397	0.0486	0.0576	0.0668	0.0759	0.0844	0.0927	0.1006	0.108	0.115	0.1218	0.1285	0.1351	0.1415	0.1477	0.1536	0.1593	0.1646	0.1696	0.1743	0.1788	0.1834	0.188	0.193	0.1982	0.2035	0.2081	0.2116	0.2134	0.2158	0.2202	0.2238	0.226	0.2279	0.23	0.2313	0.2316	0.2322	0.2339	0.2365	0.2392	0.2399	0.2375	0.2339	0.2315	0.2291	0.2265	0.224	0.2214	0.2184	0.2152	0.2119	0.2085	0.2046	0.2	0.1945	0.1884	0.1822	0.176	0.1694	0.1623	0.1549	0.1472	0.1392	0.131	0.1226	0.114	0.1053	0.0965	0.0876	0.0787	0.0696	0.0603	0.051	0.0418	0.0327	0.0236	0.0144	0.0056	0.0016	-0.0056	-0.0107	-0.0173	-0.0244	-0.0311	-0.0374	-0.043	-0.0478	-0.0522	-0.0565	-0.0605	-0.0643	-0.0677	-0.0709	-0.0741	-0.0775	-0.0811	-0.0847	-0.0878	-0.0908	-0.0936	-0.0966	-0.0999	-0.1026
[M]
10.5393	10.495	10.3037	10.0058	9.6419	9.2525	8.8783	8.5556	8.2793	8.0209	7.7566	7.4817	7.1952	6.8964	6.5872	6.2782	5.9724	5.6653	5.3545	5.0498	4.7431	4.4065	4.0308	3.6711	3.4227	3.254	2.9926	2.7138	2.5972	2.5907	2.6111	2.5849	2.5363	2.4961	2.4537	2.4101	2.3672	2.3247	2.2822	2.2393	2.1963	2.1544	2.1117	2.0625	2.0202	2.0012	1.9795	1.899	1.7712	1.6914	1.6432	1.5887	1.5223	1.4559	1.3936	1.3286	1.2598	1.2063	1.1674	1.1325	1.095	1.0521	1.0014	0.9422	0.8812	0.8177	0.748	0.6855	0.6217	0.5109	0.4079	0.3058	0.1985	0.0966	-0.0207	-0.1872	-0.3575	-0.5193	-0.6756	-0.8342	-1.0086	-1.2067	-1.4158	-1.6196	-1.8171	-2.0203	-2.2245	-2.3779	-2.508	-2.6455	-2.7905	-2.9422	-3.1	-3.2628	-3.4277	-3.592	-3.7549	-3.9165	-4.0811	-4.2531	-4.4328	-4.6177	-4.805	-4.9922	-5.1766	-5.3559	-5.5364	-5.7246	-5.9106	-6.0856	-6.2635	-6.4685	-6.6992	-6.9217	-7.136	-7.35	-7.5654	-7.7782	-7.9858	-8.1916	-8.4005	-8.6124	-8.8225	-9.0328	-9.2735	-9.5347	-9.7947	-10.0529	-10.3104	-10.5692	-10.8312	-11.0967	-11.3618	-11.6267	-11.8934	-12.1626	-12.4311	-12.6958	-12.9576	-13.2208	-13.4901	-13.7702	-14.0655	-14.3808	-14.7184	-15.0664	-15.4077	-15.739	-16.1213	-16.5211	-16.7821
17.1824	16.5608	16.1076	15.656	15.1763	14.6691	14.1427	13.5995	13.0385	12.474	11.9232	11.3681	10.789	10.2153	9.6883	9.2057	8.7311	8.2281	7.674	7.121	6.5995	5.9138	5.2604	4.7714	4.2906	3.31	2.8141	2.5152	1.9427	1.782	2.107	2.6566	3.201	3.7003	3.9629	4.0239	3.9959	3.9357	3.8659	3.8082	3.7667	3.7345	3.7052	3.6747	3.6414	3.6057	3.568	3.529	3.49	3.4511	3.4119	3.3723	3.335	3.3022	3.2737	3.2422	3.2036	3.1665	3.1337	3.1009	3.0666	3.0307	2.9938	2.9556	2.9126	2.8621	2.8022	2.7371	2.6751	2.6206	2.5757	2.5422	2.5206	2.505	2.4879	2.4649	2.4337	2.3943	2.3479	2.2966	2.2427	2.1885	2.136	2.0869	2.0418	1.9991	1.955	1.908	1.8593	1.8112	1.7671	1.7272	1.6861	1.64	1.5884	1.5318	1.4718	1.4102	1.3493	1.2919	1.2412	1.1968	1.1545	1.1085	1.0518	0.9752	0.877	0.7767	0.6895	0.6186	0.5484	0.4575	0.3426	0.2215	0.1296	0.0547	-0.0289	-0.1309	-0.2539	-0.4017	-0.575	-0.7512	-0.9285	-1.1438	-1.4768	-1.9482	-2.4158	-3.0098	-3.7038	-4.3658	-5.2029	-5.9152	-6.7258	-7.4566	-8.2551	-9.1062	-9.7266	-10.1183	-10.6513	-11.3433	-12.027	-12.6391	-13.2307	-13.838	-14.4488	-15.0463	-15.6338	-16.2227	-16.8326	-17.4957	-18.1574
22.6805	22.1731	21.5319	21.0211	20.524	19.9925	19.4293	18.8391	18.2273	17.6001	16.9733	16.3689	15.8	15.2483	14.6887	14.1137	13.5527	13.0392	12.576	12.1293	11.6786	11.228	10.7789	10.3196	9.8365	9.316	8.7463	8.1438	7.5458	6.9902	6.5145	6.1067	5.6566	5.0422	4.1485	3.2701	3.2935	3.298	3.1713	2.7022	2.2531	1.9895	1.7008	1.5892	1.702	2.0139	2.4986	3.1134	3.7966	4.4858	5.1185	5.632	5.968	6.1305	6.1711	6.1429	6.0988	6.0711	6.0558	6.0453	6.032	6.0095	5.978	5.9401	5.8984	5.8555	5.8138	5.7754	5.7425	5.7173	5.6992	5.6799	5.6498	5.5993	5.5216	5.4349	5.3722	5.3656	5.4078	5.43	5.414	5.377	5.337	5.309	5.2948	5.2672	5.2354	5.1897	5.1063	5.0022	4.8982	4.8175	4.7799	4.7506	4.6594	4.4755	4.3196	4.2151	4.0382	3.8252	3.7253	3.6266	3.4647	3.259	3.0486	2.853	2.6486	2.4065	2.0962	1.6908	1.2467	0.8643	0.4936	0.0996	-0.309	-0.7357	-1.1864	-1.6214	-2.1431	-2.7556	-3.3302	-3.8162	-4.3114	-4.8815	-5.4307	-5.9433	-6.4332	-6.9379	-7.5042	-8.1664	-8.7588	-9.1435	-9.4926	-9.9508	-10.4988	-11.0881	-11.6702	-12.2183	-12.7457	-13.2701	-13.8091	-14.3696	-14.9426	-15.518	-16.0877	-16.6566	-17.2349	-17.8327	-18.4581	-19.1181	-19.7047
26.2045	24.839	24.1183	23.5288	22.9556	22.3468	21.6575	20.8718	20.0181	19.1527	18.3205	17.5077	16.6808	15.8636	15.1231	14.4603	13.8055	13.1402	12.4722	11.7573	10.895	9.8894	8.7946	7.7303	6.7212	4.921	3.8986	3.1813	1.9397	1.6374	2.2913	3.6009	4.9028	6.0769	6.9286	7.3967	7.6011	7.6703	7.7071	7.7619	7.8234	7.88	7.9304	7.972	8.0021	8.0213	8.0319	8.0364	8.0364	8.0339	8.0308	8.0274	8.0209	8.01	7.9969	7.9877	7.9865	7.9905	7.9976	8.007	8.0141	8.0136	8.0023	7.9791	7.9465	7.908	7.8686	7.8309	7.7969	7.7733	7.7688	7.7824	7.8071	7.8295	7.8366	7.8301	7.8168	7.8016	7.7885	7.7787	7.7725	7.7697	7.7699	7.7729	7.7787	7.7836	7.7819	7.7728	7.7604	7.746	7.7271	7.7007	7.6634	7.6146	7.558	7.4973	7.4351	7.3738	7.315	7.2628	7.2236	7.1983	7.181	7.1585	7.1136	7.0295	6.9044	6.7743	6.6654	6.5818	6.4972	6.377	6.2186	6.0545	5.9454	5.8686	5.7757	5.645	5.4661	5.243	5.0045	4.7922	4.5671	4.2451	3.7247	2.9732	2.2282	1.3472	0.3481	-0.6212	-1.9928	-3.0817	-4.3765	-5.5141	-6.7324	-7.9985	-8.8938	-9.4386	-10.2364	-11.3163	-12.4053	-13.393	-14.3388	-15.2777	-16.18	-17.0191	-17.817	-18.6312	-19.5119	-20.4477	-21.5426
28.1881	26.5773	25.733	25.0795	24.4921	23.8955	23.2202	22.4292	21.5472	20.6315	19.7292	18.8446	17.963	17.0986	16.2944	15.5485	14.8079	14.0629	13.328	12.5656	11.6457	10.6022	9.5201	8.4304	7.3422	5.692	4.5732	3.6409	2.2252	1.837	2.3949	3.7032	4.9648	6.1739	7.2285	7.9465	8.3455	8.5477	8.7019	8.8809	9.0573	9.2127	9.3499	9.4698	9.5698	9.6496	9.7129	9.7639	9.8063	9.8441	9.8798	9.913	9.9366	9.9472	9.9488	9.9508	9.9603	9.9759	9.9969	10.0232	10.0465	10.0567	10.0494	10.0253	9.9924	9.9572	9.9226	9.8889	9.8547	9.8287	9.8234	9.8327	9.8419	9.8357	9.8024	9.7523	9.7024	9.6607	9.6313	9.6136	9.6053	9.6035	9.6054	9.6087	9.6112	9.6086	9.5953	9.5707	9.5393	9.503	9.46	9.4088	9.3478	9.2772	9.2005	9.1212	9.0419	8.9641	8.8866	8.8113	8.7444	8.6884	8.6405	8.5876	8.5112	8.397	8.2448	8.0871	7.9455	7.821	7.6922	7.5327	7.3413	7.1435	6.9855	6.8495	6.6962	6.5038	6.2528	5.9509	5.6516	5.4046	5.1314	4.7154	4.0979	3.2882	2.4175	1.4246	0.3622	-0.6439	-2.092	-3.2031	-4.5928	-5.8531	-7.2117	-8.5003	-9.4336	-10.1055	-11.0282	-12.2187	-13.4329	-14.5649	-15.6467	-16.6894	-17.665	-18.5629	-19.4179	-20.2973	-21.2624	-22.3031	-23.5761
29.3806	27.6397	26.6983	25.9835	25.3767	24.7859	24.1261	23.3456	22.4648	21.5329	20.5915	19.6623	18.7525	17.8659	17.014	16.1912	15.3699	14.5486	13.7439	12.9436	12.0078	10.9693	9.9679	8.9347	7.8348	6.4961	5.3505	4.2208	2.7042	2.2141	2.5596	3.6959	4.7428	5.8581	7.0343	7.973	8.5619	8.9094	9.1961	9.5143	9.8211	10.0892	10.3254	10.5344	10.715	10.866	10.992	11.0998	11.1955	11.285	11.3714	11.4531	11.5189	11.5629	11.5904	11.6113	11.6345	11.6624	11.6968	11.7388	11.7769	11.7971	11.7945	11.772	11.7432	11.7163	11.6913	11.6652	11.6339	11.6072	11.6003	11.6019	11.5894	11.5467	11.4651	11.3647	11.2726	11.1994	11.148	11.1157	11.0973	11.0881	11.0833	11.0788	11.0703	11.0532	11.0222	10.9765	10.9197	10.8541	10.7802	10.6984	10.6088	10.5122	10.4115	10.309	10.2076	10.1073	10.004	9.8969	9.7913	9.6913	9.5977	9.4992	9.3782	9.2247	9.0404	8.8505	8.6695	8.4946	8.3123	8.108	7.8812	7.6454	7.4244	7.2088	6.9763	6.7077	6.375	5.9902	5.631	5.3441	5.0095	4.4913	3.7787	2.9316	1.9549	0.8777	-0.257	-1.2611	-2.7132	-3.7731	-5.2271	-6.5734	-8.038	-9.318	-10.2897	-11.119	-12.1698	-13.4406	-14.7394	-15.978	-17.1595	-18.2724	-19.2966	-20.2423	-21.1543	-22.0977	-23.1344	-24.2553	-25.6566
30.5317	29.6656	28.596	27.7262	27.0007	26.3637	25.7595	25.1327	24.4492	23.7198	22.9605	22.1874	21.4168	20.6645	19.9365	19.2229	18.5127	17.8003	17.0875	16.3764	15.6736	14.9911	14.3416	13.7306	13.1178	12.451	11.7682	11.1465	10.5811	10.0285	9.4431	8.858	8.3256	7.8439	7.3831	6.9134	6.4133	5.8886	5.352	4.824	4.1413	3.4932	3.3047	2.8883	2.7259	2.7342	3.0387	3.5615	4.0776	4.5374	5.1488	5.9749	6.8915	7.7642	8.4589	8.9334	9.366	9.8503	10.3254	10.7592	11.1479	11.4883	11.7788	12.0301	12.2592	12.4828	12.6921	12.8438	12.9426	13.0205	13.1057	13.2034	13.247	13.2262	13.2111	13.1986	13.1715	13.1758	13.0728	12.8181	12.6109	12.507	12.4633	12.4352	12.3785	12.2563	12.0743	11.8517	11.6079	11.3623	11.1219	10.8608	10.5962	10.3369	10.0189	9.6435	9.2639	8.8743	8.4613	8.0305	7.5887	7.122	6.592	6.0164	5.5737	5.2322	4.7917	4.2034	3.5925	2.9995	2.3866	1.716	1.068	0.5261	-0.1604	-0.7233	-1.2757	-1.7748	-2.3791	-3.2392	-3.4325	-4.1611	-5.064	-5.7083	-6.4417	-7.2252	-7.9871	-8.7244	-9.4436	-10.1585	-10.8841	-11.6349	-12.4149	-13.2206	-14.0483	-14.8932	-15.7482	-16.6056	-17.4579	-18.2975	-19.1168	-19.912	-20.6918	-21.467	-22.2485	-23.0471	-23.8738	-24.7395	-25.655	-26.6312	-27.6357
32.2218	30.6415	29.64	28.8084	28.0661	27.3215	26.5084	25.6069	24.6625	23.697	22.7178	21.7435	20.7922	19.8596	18.9207	17.9659	17.0072	16.0505	15.1101	14.2228	13.272	12.2486	11.335	10.3661	9.266	8.3641	7.2353	5.8287	4.2163	3.4589	3.2244	3.7842	4.2257	5.0085	6.134	7.2459	8.0275	8.5998	9.1091	9.6551	10.184	10.6496	11.0592	11.4258	11.7532	12.0405	12.2948	12.5269	12.7464	12.9615	13.1763	13.3875	13.5788	13.7388	13.8687	13.9731	14.0582	14.1324	14.2038	14.2788	14.3482	14.3987	14.4277	14.441	14.4564	14.4823	14.5144	14.545	14.5657	14.5839	14.6126	14.6341	14.6189	14.5538	14.4378	14.3023	14.186	14.0981	14.036	13.9931	13.9617	13.9378	13.9195	13.9037	13.8866	13.8629	13.8268	13.7743	13.7039	13.6161	13.5136	13.3993	13.2757	13.1447	13.0076	12.8657	12.7219	12.5753	12.4191	12.2495	12.0692	11.8831	11.6969	11.5042	11.2926	11.0596	10.8092	10.5538	10.2983	10.0369	9.7681	9.4917	9.2026	8.8904	8.5416	8.166	7.776	7.3666	6.9044	6.414	5.9947	5.6298	5.1451	4.457	3.5723	2.6081	1.5098	0.3621	-1.1466	-2.1551	-3.5753	-4.4403	-6.1369	-7.6011	-9.2179	-10.6688	-11.9169	-13.1335	-14.4727	-15.8944	-17.2808	-18.5997	-19.8539	-21.0354	-22.1588	-23.2611	-24.3821	-25.543	-26.7503	-27.95	-29.3932
34.3556	33.0286	32.0546	31.1611	30.294	29.3792	28.3828	27.331	26.2998	25.2968	24.3048	23.3192	22.342	21.3723	20.3883	19.3812	18.3693	17.3578	16.3581	15.4177	14.4447	13.4058	12.4494	11.432	10.3024	9.3956	8.2694	6.7915	5.1508	4.2365	3.7045	3.9468	4.1053	4.7258	5.7028	6.7528	7.5194	8.1516	8.7342	9.3515	9.9553	10.4917	10.965	11.3911	11.7774	12.1235	12.4375	12.7314	13.0155	13.2983	13.5839	13.8694	14.1379	14.3754	14.5785	14.7465	14.8819	14.9935	15.0919	15.1874	15.2762	15.3506	15.4097	15.4597	15.5162	15.5862	15.6651	15.7445	15.8149	15.8799	15.9482	16.002	16.0138	15.9737	15.8841	15.7767	15.6889	15.6262	15.5824	15.5499	15.5216	15.4971	15.4785	15.4656	15.4566	15.4464	15.4276	15.3938	15.34	15.2646	15.1697	15.0582	14.933	14.7964	14.6496	14.4941	14.3327	14.1652	13.9856	13.7904	13.5812	13.3621	13.1387	12.9069	12.6579	12.3908	12.1094	11.8237	11.5376	11.2472	10.9522	10.6522	10.3369	9.988	9.5847	9.1439	8.691	8.2299	7.7315	7.2256	6.8041	6.3987	5.8337	5.0902	4.1309	3.0715	1.9556	0.8144	-0.9877	-2.0289	-3.451	-4.2293	-6.1075	-7.6214	-9.3017	-10.9494	-12.4259	-13.837	-15.3243	-16.8334	-18.2481	-19.5635	-20.8138	-22.0185	-23.2122	-24.4336	-25.7091	-27.0252	-28.3392	-29.5507	-30.9218
36.6692	35.6352	34.6961	33.7308	32.7164	31.6039	30.397	29.1727	28.0399	26.9934	25.9914	25	23.998	22.9899	21.9653	20.9178	19.8652	18.8105	17.7619	16.7697	15.7701	14.7072	13.6759	12.5794	11.4062	10.3955	9.2593	7.7444	6.0815	5.0108	4.2054	4.1339	4.0504	4.5326	5.3271	6.2569	6.9689	7.6343	8.2714	8.9404	9.6006	10.1941	10.7216	11.2008	11.6415	12.0438	12.4162	12.7711	13.1191	13.4682	13.8228	14.1809	14.5264	14.8437	15.124	15.3614	15.5545	15.7107	15.8423	15.9634	16.0768	16.1809	16.2773	16.3717	16.4756	16.594	16.7229	16.8544	16.9785	17.0949	17.2069	17.2984	17.3466	17.3456	17.3003	17.2396	17.1958	17.1702	17.1527	17.1364	17.1163	17.0956	17.0811	17.0757	17.079	17.0861	17.088	17.076	17.0422	16.9826	16.899	16.7936	16.6695	16.5292	16.374	16.2056	16.0268	15.8381	15.6355	15.4163	15.1814	14.9337	14.6774	14.4108	14.1285	13.8302	13.5191	13.204	12.8898	12.575	12.2585	11.9367	11.5941	11.208	10.7561	10.2607	9.756	9.2547	8.7338	8.2231	7.7955	7.3397	6.698	5.9158	4.8885	3.7241	2.606	1.4841	-0.6035	-1.6914	-3.1184	-3.8506	-5.8866	-7.4485	-9.193	-11.041	-12.7272	-14.2919	-15.9065	-17.5062	-18.959	-20.2788	-21.5355	-22.7787	-24.0581	-25.408	-26.8425	-28.3166	-29.74	-30.9646	-32.2426
38.8984	38.1372	37.2151	36.1626	34.9913	33.6827	32.2741	30.8871	29.6569	28.5685	27.5589	26.5659	25.5444	24.5039	23.448	22.3738	21.2948	20.211	19.1273	18.0912	17.0659	15.9776	14.8623	13.6776	12.4531	11.2862	10.1224	8.5956	6.9122	5.6988	4.6647	4.2982	4.0312	4.4132	5.0294	5.8152	6.4617	7.1412	7.8201	8.5293	9.2327	9.874	10.4515	10.9829	11.4784	11.9379	12.369	12.7838	13.1928	13.6035	14.0206	14.4433	14.8579	15.2483	15.6017	15.9075	16.1606	16.3667	16.5382	16.692	16.8366	16.9766	17.1154	17.2575	17.4097	17.5748	17.75	17.9283	18.1004	18.2629	18.4141	18.541	18.6269	18.6702	18.6774	18.6718	18.6778	18.6923	18.7029	18.7046	18.6958	18.6833	18.6774	18.6824	18.6987	18.7208	18.7385	18.7416	18.7205	18.6704	18.5924	18.4886	18.3619	18.2148	18.0487	17.8654	17.6673	17.4557	17.2288	16.9854	16.7258	16.4514	16.1649	15.8662	15.5534	15.226	14.8859	14.542	14.2002	13.8613	13.5223	13.1751	12.8005	12.3752	11.8799	11.3403	10.7949	10.2636	9.7291	9.2122	8.7566	8.2332	7.524	6.7161	5.6268	4.3601	3.2446	2.1428	-0.1585	-1.3006	-2.7266	-3.4782	-5.5956	-7.2069	-9.0225	-11.0157	-12.8286	-14.4744	-16.1766	-17.8655	-19.3815	-20.7426	-22.0454	-23.3604	-24.7405	-26.2135	-27.7879	-29.3998	-30.9252	-32.1797	-33.3766
40.7792	40.2106	39.2627	38.1013	36.7769	35.3026	33.7377	32.2295	30.9252	29.8035	28.7884	27.7969	26.7653	25.7055	24.6329	23.5476	22.458	21.3616	20.2601	19.1946	18.1499	17.0414	15.8564	14.5961	13.3188	11.9901	10.7757	9.2534	7.5469	6.2173	5.0198	4.3919	4.0181	4.3518	4.8325	5.4842	6.0834	6.7656	7.4797	8.2256	8.9646	9.649	10.2776	10.8656	11.4212	11.9421	12.434	12.9073	13.3725	13.8366	14.3048	14.7781	15.2462	15.6943	16.1079	16.4739	16.7849	17.0441	17.2628	17.4581	17.6424	17.8244	18.0085	18.1976	18.3939	18.598	18.8081	19.0194	19.2245	19.418	19.5954	19.7474	19.8644	19.9482	20.0064	20.0542	20.1058	20.1548	20.1888	20.2062	20.2104	20.2104	20.2171	20.2343	20.2606	20.2892	20.3094	20.3112	20.2855	20.228	20.1408	20.0262	19.8869	19.725	19.5417	19.3386	19.1175	18.8798	18.6259	18.3561	18.0703	17.769	17.453	17.1235	16.7817	16.4262	16.0577	15.6849	15.3143	14.9474	14.5787	14.197	13.7823	13.3142	12.7802	12.2065	11.6316	11.0791	10.5348	9.9983	9.4747	8.8592	8.0972	7.2738	6.1273	4.7738	3.6548	2.5621	0.1829	-1.0144	-2.4246	-3.2861	-5.3558	-7.0209	-8.9211	-10.9455	-12.7381	-14.3601	-16.0917	-17.8638	-19.4834	-20.9521	-22.37	-23.8074	-25.3036	-26.8793	-28.5511	-30.2571	-31.8676	-33.1841	-34.3448
42.0473	41.9427	41.3563	40.3879	39.1375	37.7049	36.19	34.6929	33.3133	32.1285	31.1176	30.2331	29.4277	28.6539	27.8664	27.0497	26.2107	25.3572	24.4964	23.6361	22.7837	21.9468	21.1322	20.3443	19.5867	18.8573	18.1345	17.3967	16.6407	15.8696	15.1218	14.4467	13.7506	13.0861	12.4346	12.0374	11.3849	10.6786	10.1044	9.489	8.8466	8.2023	7.5437	6.8572	6.1862	5.5861	4.7723	4.4725	3.9823	4.0219	4.251	4.5238	4.8885	5.3759	5.9783	6.6845	7.4758	8.3229	9.1954	10.0638	10.9118	11.7366	12.5363	13.3121	14.0753	14.839	15.6138	16.3762	17.0771	17.6683	18.148	18.5683	18.9812	19.4038	19.8298	20.2498	20.6365	20.9568	21.1937	21.3791	21.5292	21.5975	21.633	21.6924	21.7336	21.6762	21.4798	21.1684	20.7707	20.3057	19.7867	19.226	18.6288	17.9976	17.3362	16.6545	15.9637	15.2692	14.5404	13.7338	12.8527	11.9753	11.1704	10.4333	9.7248	8.9505	8.118	7.3312	6.4408	5.4412	4.5576	3.8156	3.2924	2.7369	1.6955	0.5457	-0.1294	-0.7966	-1.5189	-2.2307	-2.6428	-3.3451	-4.0209	-5.0679	-6.0123	-6.9671	-7.9238	-8.9011	-9.9104	-10.9488	-12.014	-13.1057	-14.2238	-15.3651	-16.5169	-17.6637	-18.791	-19.8962	-20.9917	-22.0905	-23.2057	-24.3503	-25.5374	-26.78	-28.0913	-29.4661	-30.8488	-32.1749	-33.3799	-34.3992	-35.1683
42.5746	42.0916	41.0919	39.8657	38.511	37.111	35.7117	34.3574	33.1071	32.0109	31.0541	30.2055	29.4288	28.6849	27.941	27.1817	26.4078	25.6239	24.8421	24.0592	23.2825	22.5203	21.7748	21.0468	20.3344	19.6384	18.9605	18.287	17.5977	16.8865	16.1554	15.4266	14.7489	14.0321	13.3364	12.7118	12.2473	11.5963	10.9297	10.3722	9.7378	9.0877	8.4587	7.7994	7.1112	6.4052	5.8086	5.0608	4.4837	4.0882	3.9184	4.1363	4.4303	4.7802	5.2058	5.8023	6.4981	7.2869	8.1793	9.1004	10.0512	11.022	11.9846	12.9271	13.8289	14.6906	15.5239	16.3493	17.1629	17.9365	18.6328	19.2444	19.808	20.3526	20.8667	21.3281	21.7328	22.071	22.3582	22.6167	22.7733	22.8458	22.947	22.9833	22.8128	22.4426	21.9567	21.3905	20.7663	20.0978	19.3983	18.6677	17.9098	17.1347	16.3351	15.5009	14.623	13.6955	12.7519	11.8456	11.0154	10.1785	9.2515	8.3382	7.5236	6.7202	5.7809	4.8011	3.9381	3.2081	2.6568	2.0725	1.1839	0.2501	-0.3748	-1.0617	-1.7664	-2.4688	-2.8071	-3.8368	-4.0748	-4.9482	-5.9778	-6.9168	-7.8616	-8.8843	-9.8452	-10.6135	-11.3148	-12.0585	-12.8881	-13.8395	-14.8902	-15.9955	-17.1352	-18.2971	-19.4769	-20.6741	-21.8851	-23.1064	-24.3323	-25.5528	-26.7624	-27.9727	-29.202	-30.4408	-31.6637	-32.8453	-33.9528	-34.9614	-35.8648
42.7763	42.1793	41.0798	39.776	38.3906	37.0234	35.7152	34.4772	33.3309	32.2988	31.371	30.5277	29.7443	28.9933	28.2514	27.502	26.7381	25.9617	25.1852	24.4062	23.6327	22.8734	22.1304	21.4032	20.6882	19.9837	19.293	18.6096	17.9214	17.2256	16.5107	15.7825	15.0886	14.3476	13.6142	13.0249	12.4857	11.7722	11.1479	10.5978	9.917	9.2367	8.594	7.9337	7.2388	6.53	5.9189	5.269	4.5849	4.237	4.0824	4.2733	4.5893	4.9335	5.3561	5.9614	6.6426	7.4101	8.3007	9.2194	10.1923	11.2216	12.2627	13.2859	14.2535	15.1595	16.0146	16.8416	17.6532	18.451	19.2228	19.9518	20.6364	21.2719	21.8325	22.2909	22.6619	22.9754	23.2792	23.5742	23.7283	23.8247	23.9808	23.9999	23.717	23.2259	22.6611	22.0422	21.3684	20.6464	19.8959	19.1216	18.3266	17.5167	16.6664	15.7452	14.7687	13.7718	12.8003	11.8811	11.0237	10.0729	8.9384	7.9176	7.1116	6.2739	5.2947	4.3113	3.4221	2.6418	1.9978	1.3715	0.6356	-0.085	-0.6688	-1.3912	-2.0937	-2.7978	-3.0515	-4.4668	-4.3182	-5.0533	-6.1326	-7.0964	-8.0703	-9.1617	-10.1135	-10.7034	-11.1257	-11.5745	-12.1639	-12.9691	-13.9612	-15.0824	-16.3012	-17.5947	-18.9461	-20.338	-21.7493	-23.1585	-24.5413	-25.867	-27.1182	-28.3135	-29.4885	-30.663	-31.8477	-33.0512	-34.2615	-35.4203	-36.4385
43.2033	43.0102	42.2603	41.1288	39.7913	38.4231	37.1578	36.0039	34.9461	33.9692	33.0578	32.1969	31.3711	30.5652	29.764	28.9523	28.1167	27.259	26.388	25.5127	24.642	23.7847	22.9452	22.1225	21.3151	20.5218	19.7411	18.9736	18.2278	17.4748	16.7088	15.977	15.2022	14.4335	13.8359	13.1613	12.4136	11.8229	11.2072	10.4628	9.7582	9.0857	8.4006	7.6809	6.9858	6.3824	5.7625	5.0356	4.847	4.6291	4.8712	5.0239	5.2688	5.7067	6.2335	6.8258	7.5333	8.316	9.1576	10.0821	11.0736	12.0877	13.0796	14.0153	14.8984	15.7404	16.5528	17.3473	18.1354	18.9256	19.7057	20.455	21.1528	21.7784	22.3111	22.7437	23.106	23.434	23.764	24.0857	24.2786	24.3882	24.5619	24.7321	24.7054	24.4213	24.0007	23.5525	23.0714	22.52	21.8908	21.2087	20.4984	19.7693	19.0238	18.2572	17.4383	16.5347	15.5631	14.5661	13.5848	12.6527	11.78	10.8128	9.5793	8.4249	7.5699	6.7001	5.6674	4.6287	3.6565	2.7672	1.9778	1.257	0.5804	-0.0276	-0.6211	-1.3894	-2.1126	-2.7925	-3.1243	-4.7456	-4.2082	-5.1603	-6.1602	-7.1997	-8.2572	-9.4055	-10.2169	-10.6903	-11.0247	-11.4193	-12.0571	-12.9738	-14.1258	-15.4687	-16.958	-18.5493	-20.1982	-21.8603	-23.4912	-25.0464	-26.4822	-27.7932	-29.0307	-30.2509	-31.5102	-32.8645	-34.3634	-35.8435	-36.8906
44.2228	43.8906	43.1558	42.2797	41.3433	40.4307	39.5611	38.7159	37.8789	37.0447	36.2148	35.3905	34.5696	33.7482	32.924	32.0878	31.2316	30.356	29.474	28.5826	27.6908	26.8073	25.9339	25.0715	24.2177	23.3699	22.5348	21.7203	20.9258	20.1494	19.3775	18.5984	17.843	17.0706	16.3023	15.6888	15.0293	14.2435	13.5758	12.9154	12.2035	11.5011	10.824	10.1334	9.3972	8.6837	8.0319	7.4414	6.6698	6.2164	5.8438	5.6487	5.6193	5.3658	5.5972	5.8721	6.1944	6.6864	7.1926	7.8519	8.631	9.5089	10.4555	11.4238	12.3734	13.3122	14.2512	15.1838	16.1022	17.0137	17.9348	18.8543	19.7476	20.5912	21.3678	22.0543	22.6589	23.2132	23.7444	24.2052	24.4846	24.7196	25.0119	25.1736	25.0361	24.7644	24.4804	24.0852	23.5259	22.8577	22.1404	21.4007	20.6446	19.8635	19.0161	18.0836	17.0991	16.0692	15.0182	14.0216	13.0764	12.0071	10.7706	9.6814	8.7937	7.826	6.7515	5.7016	4.6923	3.7318	2.8418	2.0306	1.3287	0.7132	0.0715	-0.6849	-1.3894	-2.0841	-2.4739	-3.8976	-3.7558	-4.3	-5.2157	-6.1558	-7.1763	-8.2619	-9.1397	-9.8665	-10.4954	-10.9782	-11.5186	-12.2734	-13.27	-14.4482	-15.7608	-17.1731	-18.6524	-20.1668	-21.6904	-23.1972	-24.6579	-26.037	-27.3135	-28.5094	-29.6679	-30.8298	-32.0392	-33.3341	-34.7008	-36.0381	-37.2284
45.466	45.4882	45.1547	44.7084	44.1734	43.6034	43.0051	42.3678	41.6815	40.9452	40.1655	39.3498	38.5034	37.6292	36.7326	35.812	34.8669	33.8999	32.924	31.9348	30.9407	29.9501	28.9644	27.9864	27.016	26.0528	25.1071	24.1894	23.2989	22.4319	21.5893	20.7652	19.9747	19.1959	18.4256	17.7426	17.0414	16.2552	15.5105	14.7498	14.0518	13.3575	12.6692	11.9479	11.1845	10.4711	9.7861	9.1393	8.3736	7.7626	7.1901	6.6965	6.3488	5.5865	5.6435	5.6166	5.647	5.9294	6.1144	6.5601	7.1594	7.8597	8.6579	9.5105	10.3915	11.3267	12.3276	13.3611	14.3872	15.3881	16.378	17.3583	18.324	19.271	20.2013	21.0978	21.9449	22.7352	23.4555	24.0434	24.451	24.7893	25.1445	25.4427	25.5394	25.5746	25.6024	25.4378	25.0175	24.4483	23.8097	23.1344	22.4323	21.6944	20.8916	20.0281	19.123	18.1222	17.0233	15.9673	14.9711	13.9107	12.7824	11.7256	10.7467	9.6948	8.5712	7.46	6.3699	5.3061	4.2976	3.3659	2.5388	1.795	1.0612	0.3099	-0.3983	-1.0758	-1.682	-2.7303	-2.974	-3.4925	-4.2216	-5.1069	-6.1433	-7.1608	-7.9908	-9.022	-10.1151	-10.9328	-11.6815	-12.5485	-13.6164	-14.8359	-16.158	-17.5476	-18.9717	-20.4028	-21.829	-23.2384	-24.6169	-25.9446	-27.211	-28.4337	-29.6459	-30.8772	-32.1626	-33.5278	-34.9336	-36.2733	-37.4847
46.38	46.597	46.6794	46.634	46.4677	46.1874	45.8002	45.3128	44.7323	44.0655	43.3193	42.5007	41.6167	40.674	39.6797	38.6406	37.5637	36.4559	35.3241	34.1753	33.0163	31.8541	30.6955	29.5476	28.4172	27.3113	26.2367	25.2005	24.2094	23.2705	22.3906	21.5708	20.7827	19.9915	19.1972	18.4237	17.652	16.8181	15.978	15.3058	14.5787	13.874	13.1012	12.3498	11.6548	10.9159	10.2228	9.4218	8.677	7.9403	7.2652	6.5639	5.4661	5.8545	5.1635	5.3885	5.3113	5.3706	5.7243	6.1981	6.7651	7.4403	8.1738	8.9732	9.8751	10.8846	11.9495	13.0111	14.0282	15.0056	15.956	16.8918	17.8257	18.7702	19.7337	20.6955	21.6228	22.4828	23.2425	23.8694	24.3577	24.7496	25.0922	25.4328	25.7646	26.0081	26.2677	26.5292	26.6158	26.435	26.0699	25.6045	25.0679	24.4768	23.8388	23.1582	22.4397	21.6884	20.8948	19.976	18.8831	17.795	16.7826	15.7602	14.7481	13.7276	12.6674	11.5389	10.3556	9.1621	7.9798	6.8124	5.6851	4.6273	3.6432	2.7341	1.9087	1.1564	0.4388	-0.25	-1.0633	-1.7556	-2.391	-2.8976	-3.53	-4.4483	-5.5592	-6.4488	-7.4154	-9.085	-10.4713	-11.5528	-12.5582	-13.6934	-14.9888	-16.394	-17.8581	-19.3305	-20.778	-22.198	-23.5906	-24.9564	-26.2959	-27.6221	-28.9648	-30.3554	-31.8251	-33.4051	-35.0659	-36.5844	-37.699
46.541	46.9091	46.9595	46.9644	46.8823	46.6994	46.3963	45.9719	45.4291	44.7823	44.0458	43.2341	42.3601	41.4332	40.4636	39.4588	38.4288	37.3788	36.3207	35.2467	34.1637	33.079	31.993	30.9094	29.8291	28.7559	27.7045	26.683	25.6871	24.7161	23.802	22.957	22.1618	21.3945	20.6276	19.8394	19.0956	18.3256	17.4766	16.5876	15.9029	15.2164	14.5225	13.7935	13.0611	12.3984	11.6422	10.9378	10.1572	9.3143	8.5847	7.8258	7.1809	5.9522	5.8347	5.4829	5.2269	5.308	5.1645	5.3969	5.8138	6.3206	6.9458	7.6582	8.4576	9.3905	10.4668	11.6248	12.7867	13.9011	14.9699	16.0102	17.0485	18.1116	19.2213	20.3646	21.4869	22.5252	23.4434	24.2016	24.8091	25.2785	25.6606	26.0667	26.4344	26.8388	27.1952	27.2298	26.9557	26.5569	26.0586	25.4494	24.7424	23.9854	23.2293	22.4532	21.6306	20.6578	19.5031	18.3754	17.325	16.309	15.3556	14.3291	13.1873	12.0121	10.8332	9.6565	8.495	7.3372	6.209	5.1358	4.1219	3.1734	2.3272	1.6208	0.9381	0.305	-0.6242	-1.0696	-1.9596	-2.4661	-2.9401	-3.6637	-4.722	-5.6448	-6.4374	-7.9104	-9.666	-11.0496	-12.2073	-13.3183	-14.526	-15.8064	-17.1198	-18.4389	-19.7369	-20.9996	-22.2368	-23.4595	-24.6776	-25.9015	-27.1437	-28.4182	-29.7425	-31.1255	-32.5712	-34.0563	-35.4845	-36.7536	-37.9038
46.0406	46.2779	46.1905	46.0992	45.9704	45.7614	45.4402	44.9981	44.4353	43.7707	43.0217	42.2046	41.3335	40.4178	39.4659	38.4844	37.483	36.466	35.444	34.4086	33.3654	32.3213	31.2762	30.2322	29.1878	28.147	27.1253	26.1273	25.1482	24.1914	23.2991	22.4906	21.7312	20.9795	20.2128	19.4145	18.668	17.9036	17.0535	16.1608	15.4637	14.7693	14.0791	13.3816	12.7143	12.1012	11.3149	10.6485	9.8343	8.9725	8.3431	7.6879	7.1494	6.0911	6.0201	5.7243	5.544	5.681	5.6086	5.8929	6.3543	6.8981	7.5476	8.2769	9.0907	10.0323	11.1097	12.2655	13.4274	14.5467	15.6215	16.6665	17.7084	18.773	19.8768	21.0032	22.0922	23.0814	23.9629	24.7351	25.38	25.8544	26.1924	26.5308	26.8549	27.223	27.5059	27.4482	27.1429	26.781	26.3124	25.6784	24.892	24.0552	23.28	22.4891	21.6326	20.6398	19.4845	18.3572	17.3096	16.3043	15.3529	14.2974	13.1066	11.9054	10.7259	9.561	8.4244	7.2912	6.1717	5.0991	4.0842	3.133	2.2964	1.6231	0.9726	0.3632	-0.6027	-0.9797	-1.9715	-2.4705	-2.9272	-3.5598	-4.6218	-5.5493	-6.3628	-7.8653	-9.656	-11.1364	-12.402	-13.5924	-14.8414	-16.1344	-17.4412	-18.7412	-20.0124	-21.2449	-22.4499	-23.6404	-24.8282	-26.0305	-27.2677	-28.5567	-29.9145	-31.3483	-32.8501	-34.3696	-35.7899	-37.0151	-38.1053
45.0994	45.0681	44.7018	44.3778	44.0847	43.7552	43.3451	42.8328	42.2117	41.5033	40.7276	39.902	39.0409	38.1524	37.2412	36.3109	35.3679	34.4151	33.4616	32.4982	31.53	30.5632	29.5973	28.6319	27.6621	26.6907	25.7331	24.7915	23.8614	22.9502	22.1048	21.3499	20.6385	19.9043	19.137	18.3478	17.6078	16.849	16.0213	15.1523	14.4353	13.7279	13.0427	12.3874	11.7998	11.2383	10.4302	9.8331	8.9865	8.161	7.7083	7.2578	6.9328	6.2141	6.2473	6.1039	6.0937	6.354	6.4548	6.8594	7.4235	8.0618	8.7836	9.5679	10.4201	11.3747	12.4373	13.5629	14.695	15.7963	16.862	17.9	18.9295	19.9681	21.021	22.0675	23.051	23.9221	24.7084	25.4573	26.1051	26.5543	26.823	27.0422	27.2434	27.4752	27.5844	27.3647	26.9899	26.6353	26.1663	25.4774	24.5834	23.6417	22.8272	21.9949	21.0733	20.0465	18.903	17.792	16.7583	15.7546	14.7647	13.6617	12.4401	11.2307	10.0631	8.9294	7.8422	6.7632	5.683	4.6441	3.6713	2.7637	1.9647	1.3256	0.7139	0.1288	-0.8125	-1.2313	-2.2171	-2.7094	-3.1989	-3.7447	-4.8011	-5.761	-6.6145	-8.0555	-9.7451	-11.2294	-12.5495	-13.7943	-15.0698	-16.3674	-17.668	-18.9581	-20.2216	-21.4512	-22.6557	-23.8455	-25.0297	-26.2278	-27.4656	-28.7634	-30.1407	-31.6073	-33.146	-34.6826	-36.0867	-37.2719	-38.3028
43.9378	43.5587	42.8423	42.2183	41.7006	41.2018	40.6665	40.0575	39.3588	38.5938	37.7846	36.9492	36.1017	35.2483	34.3893	33.5239	32.6541	31.7804	30.9104	30.035	29.1585	28.2867	27.4186	26.5511	25.6753	24.7916	23.9146	23.0468	22.1855	21.3392	20.5541	19.8578	19.1954	18.477	17.7085	16.9391	16.212	15.4607	14.6692	13.8398	13.1	12.3772	11.6956	11.0829	10.5742	10.0548	9.2363	8.7275	7.8652	7.1206	6.8841	6.6896	6.6301	6.3324	6.4996	6.5616	6.7703	7.1885	7.5165	8.0772	8.7732	9.535	10.3538	11.213	12.1163	13.0861	14.1255	15.2061	16.2927	17.3634	18.4111	19.4342	20.4401	21.4338	22.4078	23.3388	24.1819	24.9062	25.5671	26.265	26.889	27.2916	27.4769	27.5519	27.5871	27.626	27.5133	27.1119	26.6566	26.2833	25.7829	25.0171	24.0071	22.9542	22.0876	21.1985	20.198	19.1315	18.007	16.9208	15.9046	14.8934	13.8405	12.682	11.4439	10.2388	9.0907	7.9982	6.9715	5.9606	4.9373	3.9525	3.0473	2.2098	1.4621	0.8537	0.2819	-0.2784	-1.1547	-1.6817	-2.5931	-3.0822	-3.633	-4.1048	-5.1427	-6.1556	-7.0615	-8.3847	-9.8947	-11.3217	-12.6561	-13.9355	-15.2275	-16.5254	-17.8208	-19.1078	-20.3765	-21.6211	-22.8459	-24.0562	-25.256	-26.4637	-27.7075	-29.0108	-30.396	-31.8771	-33.4322	-34.9691	-36.3521	-37.5077	-38.4956
42.7764	42.0288	40.9612	40.0389	39.2934	38.6224	37.9601	37.2534	36.4774	35.656	34.8136	33.9687	33.135	32.3165	31.5098	30.7092	29.9118	29.1159	28.3277	27.5384	26.7519	25.9736	25.2024	24.4323	23.6507	22.8541	22.0562	21.2644	20.4791	19.7052	18.982	18.3371	17.7136	17.0057	16.2355	15.4882	14.7779	14.0377	13.2865	12.5009	11.7403	11.0023	10.3206	9.7397	9.2937	8.7953	7.9814	7.5674	6.7219	6.0923	6.0742	6.1374	6.3399	6.4569	6.7602	7.0367	7.4678	8.0464	8.6073	9.3268	10.1553	11.0413	11.9584	12.8944	13.8497	14.8346	15.8498	16.8842	17.9236	18.9614	19.9883	20.9927	21.9683	22.9067	23.7908	24.5985	25.3031	25.8927	26.4261	27.055	27.636	27.9798	28.0789	28.0108	27.8732	27.7059	27.3747	26.8224	26.3029	25.8885	25.3247	24.4682	23.3538	22.2018	21.2778	20.3281	19.2521	18.1482	17.0448	15.9847	14.982	13.954	12.8301	11.6181	10.3741	9.1804	8.0546	7.0043	6.0354	5.0909	4.1294	3.2063	2.3762	1.6154	0.9185	0.3325	-0.2037	-0.7387	-1.5306	-2.1882	-2.9964	-3.4881	-4.1075	-4.5262	-5.5291	-6.6085	-7.5729	-8.7568	-10.0661	-11.4063	-12.7281	-14.0275	-15.3307	-16.628	-17.9203	-19.2086	-20.489	-21.757	-23.0119	-24.2538	-25.4808	-26.7085	-27.964	-29.2714	-30.6547	-32.1326	-33.6823	-35.2031	-36.5633	-37.7063	-38.6833
41.8357	41.3999	40.2421	38.9218	37.8089	36.8738	36.0365	35.2171	34.361	33.4792	32.5927	31.7172	30.8649	30.0408	29.2376	28.4467	27.6601	26.8752	26.0928	25.3135	24.5409	23.7797	23.028	22.2715	21.497	20.7093	19.9252	19.161	18.4191	17.7174	17.085	16.4654	15.7407	14.9449	14.1752	13.4429	12.7309	12.0051	11.2351	10.4424	9.6815	9.0091	8.482	8.0791	7.4626	6.7181	6.4515	5.4845	5.3672	5.574	5.9078	6.3437	6.773	7.1824	7.6756	8.3384	9.0463	9.8134	10.6735	11.5985	12.5567	13.5189	14.4764	15.4304	16.3822	17.3331	18.2842	19.2368	20.1908	21.1361	22.0579	22.9416	23.7725	24.5359	25.2203	25.8234	26.3446	26.783	27.1605	27.6378	28.1273	28.4511	28.5724	28.5118	28.3215	28.0734	27.7756	27.3652	26.8352	26.3115	25.8814	25.4066	24.7076	23.7587	22.6254	21.4979	20.5921	19.6514	18.5763	17.4842	16.4251	15.4058	14.4282	13.4132	12.2561	11.01	9.7569	8.5464	7.4001	6.3388	5.374	4.4572	3.5256	2.6327	1.8402	1.1194	0.4487	-0.1403	-0.6609	-1.2017	-1.9296	-2.7432	-3.4298	-3.9443	-4.6342	-5.0572	-6.257	-7.3453	-8.4556	-9.6193	-10.8872	-12.22	-13.575	-14.9399	-16.3168	-17.7077	-19.1116	-20.5202	-21.9246	-23.3155	-24.6839	-26.0248	-27.3601	-28.7235	-30.1484	-31.6684	-33.3092	-34.9956	-36.5818	-37.9207	-38.8652
41.2834	39.9599	38.4491	37.1944	36.1979	35.3438	34.5498	33.7415	32.8829	31.9995	31.1186	30.2621	29.4434	28.6644	27.9187	27.1946	26.4825	25.7773	25.0838	24.3947	23.7139	23.0471	22.393	21.7423	21.0773	20.3833	19.6722	18.9811	18.3215	17.6696	17.03	16.4215	15.8045	15.0882	14.3145	13.5864	12.911	12.21	11.5149	10.7865	10.0069	9.2494	8.5468	7.9585	7.5332	6.9728	6.2243	5.9725	5.3137	4.9758	5.2603	5.6574	6.167	6.7664	7.2439	7.8121	8.5274	9.312	10.1745	11.0968	12.085	13.1143	14.1446	15.1713	16.1905	17.197	18.1888	19.1765	20.169	21.173	22.1732	23.1434	24.0565	24.8868	25.622	26.2625	26.8351	27.3419	27.7196	28.1939	28.6608	28.8857	28.846	28.5939	28.2264	27.771	27.2079	26.6312	26.1312	25.5821	24.7948	23.7475	22.5325	21.288	20.2619	19.2233	18.0705	16.9289	15.8543	14.8224	13.8067	12.7183	11.4896	10.2154	8.976	7.8061	6.7155	5.7176	4.8055	3.931	3.0582	2.2332	1.5092	0.8467	0.1964	-0.3863	-0.8843	-1.3683	-2.0127	-2.8323	-3.4978	-4.0208	-4.718	-5.1234	-5.9962	-7.2195	-8.293	-9.2671	-10.328	-11.5261	-12.7933	-14.1083	-15.4355	-16.743	-18.0379	-19.3326	-20.6322	-21.9364	-23.2403	-24.5394	-25.8272	-27.1116	-28.4071	-29.727	-31.0861	-32.5051	-33.9756	-35.4181	-36.7401	-37.9325	-39.0398
41.0762	39.5961	38.0333	36.7753	35.7787	34.93	34.142	33.3379	32.4814	31.5982	30.7162	29.8587	29.0395	28.2607	27.5175	26.7978	26.0909	25.3907	24.7023	24.0192	23.3457	22.6879	22.0443	21.4054	20.7525	20.0649	19.3549	18.6806	18.0599	17.4466	16.8212	16.1944	15.5437	14.8088	14.0338	13.2995	12.6391	11.9636	11.2774	10.5545	9.7776	9.0165	8.2943	7.6679	7.2018	6.5674	5.8778	5.6841	5.188	5.0061	5.3536	5.8	6.3275	6.9542	7.4556	8.0757	8.8292	9.643	10.5485	11.4974	12.4982	13.5325	14.5653	15.5961	16.6206	17.6318	18.6277	19.6211	20.6203	21.6281	22.6256	23.5832	24.469	25.2555	25.9455	26.5595	27.1533	27.7202	28.083	28.4853	28.8933	29.0689	28.9844	28.7034	28.3008	27.7943	27.244	26.7974	26.3763	25.7415	24.8108	23.6774	22.472	21.2393	20.1755	19.1157	17.9683	16.8292	15.7581	14.7231	13.6788	12.5508	11.2994	10.0214	8.7881	7.6262	6.5453	5.553	4.6351	3.758	2.9043	2.1064	1.4017	0.7492	0.0889	-0.5116	-1.009	-1.4694	-2.0677	-2.8895	-3.5408	-4.0901	-4.7837	-5.2249	-6.0164	-7.2947	-8.4104	-9.3444	-10.3889	-11.5554	-12.7956	-14.1121	-15.4542	-16.7737	-18.0742	-19.3718	-20.6747	-21.9848	-23.2997	-24.6163	-25.9298	-27.2451	-28.5665	-29.8957	-31.2371	-32.6081	-34.0136	-35.4017	-36.7117	-37.9626	-39.2024
41.1177	39.5624	38.026	36.8279	35.8748	35.0608	34.2984	33.514	32.6742	31.8039	30.9293	30.0735	29.2504	28.4631	27.7097	26.9792	26.2613	25.5493	24.8486	24.1534	23.4685	22.8002	22.1469	21.4988	20.8376	20.1382	19.4144	18.7431	18.1468	17.5578	16.933	16.2744	15.5772	14.8189	14.0431	13.2984	12.6506	11.9991	11.3116	10.5834	9.8128	9.0497	8.3062	7.6332	7.1124	6.4014	5.7814	5.6341	5.3185	5.2857	5.6558	6.0989	6.5874	7.1541	7.6533	8.2834	9.0313	9.8437	10.7465	11.6901	12.675	13.6863	14.6989	15.7157	16.7332	17.7457	18.7513	19.7612	20.7783	21.7972	22.7958	23.7428	24.6042	25.3548	26.0159	26.6298	27.2763	27.9322	28.3044	28.6438	28.9981	29.1338	29.0169	28.7328	28.3319	27.8228	27.3411	27.063	26.7274	26.0001	24.9274	23.7219	22.5493	21.3507	20.2584	19.1881	18.0626	16.9337	15.8598	14.8128	13.7314	12.5626	11.3028	10.0329	8.8074	7.652	6.5772	5.5823	4.6462	3.7526	2.9069	2.125	1.4241	0.7648	0.0827	-0.5417	-1.0466	-1.4872	-2.0537	-2.8417	-3.5011	-4.0777	-4.7494	-5.2389	-5.9605	-7.2628	-8.4096	-9.3431	-10.4125	-11.5655	-12.7819	-14.0966	-15.4527	-16.7857	-18.0936	-19.3942	-20.6978	-22.0092	-23.3291	-24.6576	-25.9933	-27.3381	-28.6857	-30.025	-31.3484	-32.6684	-34.0048	-35.3378	-36.641	-37.9606	-39.3471
41.3119	39.755	38.2934	37.18	36.2799	35.5005	34.7595	33.9926	33.1724	32.3202	31.4582	30.6066	29.778	28.9771	28.2061	27.4563	26.7187	25.9864	25.2651	24.5495	23.8445	23.1564	22.4829	21.8144	21.1332	20.4135	19.6723	18.9979	18.4132	17.8349	17.2014	16.5064	15.7599	14.9771	14.2015	13.4471	12.8092	12.1758	11.4796	10.7392	9.9743	9.2093	8.4463	7.73	7.1574	6.3876	5.8426	5.7332	5.5929	5.6923	6.0605	6.4705	6.8911	7.3576	7.8423	8.4588	9.1792	9.9756	10.8525	11.7746	12.7293	13.7037	14.6844	15.6774	16.6806	17.6913	18.708	19.7382	20.7765	21.8085	22.8089	23.7461	24.5865	25.3096	25.9549	26.5847	27.2932	28.0347	28.4255	28.715	29.0254	29.1322	28.992	28.7165	28.3398	27.864	27.4813	27.3635	27.0876	26.2654	25.0697	23.8121	22.6812	21.5258	20.4134	19.3393	18.2416	17.125	16.0431	14.9772	13.8555	12.6492	11.3901	10.1349	8.9183	7.7687	6.6981	5.697	4.7391	3.8247	2.9808	2.2072	1.501	0.8261	0.1188	-0.5294	-1.0467	-1.4735	-2.0182	-2.7511	-3.427	-4.0267	-4.6669	-5.2049	-5.8855	-7.1653	-8.33	-9.2986	-10.408	-11.5575	-12.7552	-14.0652	-15.4318	-16.7777	-18.0936	-19.3976	-20.7013	-22.012	-23.3339	-24.6709	-26.025	-27.3957	-28.7671	-30.1162	-31.4236	-32.6971	-33.9707	-35.2552	-36.5567	-37.9452	-39.4684
41.5625	40.8909	39.5016	38.2681	37.2357	36.3405	35.5189	34.7077	33.8734	33.0208	32.1578	31.2921	30.4312	29.583	28.7538	27.9404	27.1354	26.3326	25.5336	24.7427	23.9643	23.2025	22.4528	21.699	20.9214	20.1142	19.3696	18.7379	18.1308	17.4563	16.7024	15.8975	15.0822	14.2853	13.4913	12.8438	12.2152	11.4816	10.7119	9.9283	9.1313	8.3419	7.6248	7.0079	6.2024	5.9284	5.8849	5.9411	6.2316	6.6113	6.976	7.3293	7.7376	8.251	8.8755	9.5956	10.3939	11.2488	12.1379	13.0409	13.9525	14.8742	15.8077	16.7547	17.7166	18.6952	19.6912	20.6923	21.6756	22.6179	23.4959	24.2865	24.9691	25.5675	26.1416	26.7526	27.4613	28.143	28.4814	28.7031	28.9582	29.1151	29.066	28.8774	28.6311	28.3245	27.9567	27.6744	27.6308	27.5621	27.0205	25.9956	24.7784	23.6244	22.6242	21.5679	20.5176	19.507	18.4842	17.4196	16.3544	15.3	14.1872	12.9807	11.7302	10.4855	9.267	8.0937	6.9877	5.9458	4.9392	3.9786	3.105	2.3123	1.5741	0.8601	0.1213	-0.5589	-1.094	-1.5311	-2.0795	-2.8055	-3.484	-4.1037	-4.7312	-5.3293	-6.1736	-7.4997	-8.6268	-9.7978	-11.0044	-12.2014	-13.5057	-14.9147	-16.3559	-17.7873	-19.2112	-20.6336	-22.0604	-23.497	-24.9474	-26.4152	-27.8951	-29.3608	-30.7827	-32.1417	-33.481	-34.8661	-36.3627	-38.0363	-39.5604
41.7907	40.4208	39.1388	38.1238	37.2299	36.4083	35.6082	34.8036	33.9853	33.1586	32.3256	31.4878	30.6494	29.8206	29.0121	28.2227	27.4485	26.6826	25.9302	25.1851	24.4516	23.7336	23.0267	22.3199	21.598	20.8498	20.1052	19.4342	18.8415	18.248	17.5856	16.8375	16.0206	15.2007	14.4291	13.6778	13.0498	12.4181	11.6927	10.9222	10.1528	9.3762	8.5932	7.8446	7.239	6.4833	6.0837	6.037	6.1459	6.421	6.7734	7.113	7.4196	7.7446	8.2151	8.8033	9.4858	10.2674	11.1086	11.9975	12.9025	13.8154	14.7399	15.6872	16.6589	17.6582	18.6859	19.7402	20.8023	21.8454	22.8408	23.7572	24.5656	25.26	25.9007	26.5715	27.3467	28.1282	28.5272	28.7705	29.0393	29.1277	28.9548	28.6781	28.3618	28.0129	27.821	27.8244	27.4711	26.4673	25.1489	23.8679	22.7938	21.7006	20.5726	19.4942	18.4297	17.3236	16.2142	15.0983	13.9068	12.65	11.4004	10.1732	8.9757	7.84	6.7782	5.7717	4.7926	3.8591	3.0192	2.2523	1.5318	0.8302	0.0955	-0.579	-1.1221	-1.5465	-2.0622	-2.6774	-3.3578	-3.9728	-4.5545	-5.1425	-5.8927	-6.933	-8.087	-9.2149	-10.3495	-11.4922	-12.6739	-13.9687	-15.3361	-16.6966	-18.027	-19.3401	-20.6488	-21.9628	-23.2913	-24.6422	-26.0211	-27.4246	-28.8266	-30.1899	-31.4814	-32.7032	-33.9071	-35.1422	-36.4562	-37.9453	-39.6197
41.9871	40.7865	39.5815	38.5522	37.5893	36.6732	35.7793	34.9092	34.0656	33.2409	32.4213	31.5922	30.751	29.9111	29.0873	28.2833	27.4984	26.7259	25.9701	25.2236	24.4893	23.7693	23.0571	22.3404	21.6054	20.8567	20.1336	19.4747	18.866	18.2498	17.5717	16.8131	15.9817	15.1517	14.3839	13.6482	13.0205	12.3712	11.6282	10.8437	10.0617	9.2745	8.4926	7.7615	7.1842	6.51	6.1765	6.1584	6.3284	6.6443	6.9974	7.3191	7.6023	7.9223	8.4037	8.9929	9.6827	10.478	11.3275	12.2172	13.1142	14.0136	14.9229	15.8553	16.8141	17.8048	18.8295	19.8827	20.9421	21.9796	22.966	23.8708	24.6676	25.3595	26.0068	26.6931	27.458	28.1752	28.5528	28.7995	29.0716	29.1691	28.9829	28.6858	28.3927	28.1226	28.0011	27.9391	27.4343	26.3471	25.0356	23.783	22.7138	21.6297	20.5041	19.4215	18.3548	17.2432	16.1159	14.9715	13.7543	12.4864	11.2406	10.0225	8.8345	7.7076	6.6517	5.6495	4.677	3.7518	2.9183	2.1535	1.4295	0.7234	-0.0077	-0.6811	-1.2346	-1.6705	-2.1744	-2.7402	-3.3986	-4.0036	-4.5654	-5.1475	-6.0129	-6.8363	-7.963	-9.2055	-10.3066	-11.4393	-12.6237	-13.9088	-15.2657	-16.6268	-17.9628	-19.2817	-20.5965	-21.9168	-23.2521	-24.6102	-25.9963	-27.4061	-28.8135	-30.1807	-31.4735	-32.6934	-33.8956	-35.1329	-36.46	-37.9748	-39.651
42.1596	41.1634	40.0285	38.9535	37.8866	36.8405	35.8218	34.8637	33.9821	33.1541	32.3472	31.5279	30.6849	29.8353	28.9979	28.182	27.3903	26.6164	25.8632	25.1218	24.3934	23.6779	22.966	22.2442	21.4998	20.7573	20.067	19.4255	18.7952	18.1494	17.455	16.6939	15.858	15.022	14.2589	13.5456	12.916	12.2401	11.4783	10.6803	9.8809	9.0806	8.3053	7.6079	7.0804	6.5234	6.2527	6.2621	6.4625	6.797	7.1552	7.4682	7.7448	8.0923	8.5937	9.1916	9.9017	10.7211	11.5921	12.4916	13.3889	14.2834	15.184	16.1054	17.0528	18.0337	19.0512	20.0968	21.1464	22.1727	23.1473	24.0396	24.8271	25.5219	26.1799	26.8791	27.6122	28.2245	28.5682	28.8309	29.1177	29.233	29.0347	28.7074	28.4336	28.249	28.1853	27.9971	27.2871	26.1198	24.8479	23.6425	22.5667	21.481	20.3625	19.2747	18.1965	17.0742	15.927	14.7527	13.5142	12.242	10.9995	9.7878	8.6095	7.4921	6.4429	5.4485	4.4909	3.5827	2.758	1.9946	1.2692	0.5632	-0.1561	-0.8214	-1.384	-1.8375	-2.3306	-2.852	-3.4764	-4.0629	-4.6097	-5.1708	-6.1899	-6.7502	-7.8395	-9.2127	-10.2576	-11.3769	-12.5693	-13.8435	-15.1849	-16.5431	-17.8841	-19.2094	-20.5321	-21.8609	-23.2046	-24.5704	-25.9612	-27.3725	-28.7806	-30.1502	-31.4484	-32.6781	-33.8943	-35.1466	-36.4902	-38.0188	-39.6614
42.3162	41.5479	40.4782	39.3368	38.1426	36.9428	35.7785	34.7175	33.7894	32.9545	32.16	31.351	30.5069	29.6487	28.7989	27.9729	27.1769	26.4049	25.6585	24.9265	24.2085	23.5017	22.7941	22.0701	21.319	20.5871	19.9372	19.3165	18.661	17.9808	17.2698	16.5115	15.6778	14.8385	14.0806	13.3942	12.7614	12.0529	11.2715	10.4605	9.6403	8.8255	8.0602	7.4073	6.9439	6.5279	6.3179	6.354	6.5644	6.9025	7.2689	7.5793	7.8605	8.2571	8.7846	9.3964	10.1354	10.986	11.8873	12.8023	13.7054	14.6009	15.4971	16.4101	17.3472	18.3174	19.3249	20.3586	21.3937	22.4052	23.366	24.2453	25.0249	25.7264	26.3977	27.108	27.795	28.2753	28.5768	28.8639	29.1729	29.3118	29.1023	28.7383	28.4812	28.3865	28.3723	28.0174	27.0661	25.8212	24.6107	23.4652	22.375	21.2804	20.1723	19.0784	17.9827	16.8461	15.6777	14.4725	13.2157	11.9439	10.7042	9.4971	8.3285	7.2213	6.1793	5.195	4.258	3.3726	2.558	1.7958	1.0703	0.3672	-0.3345	-0.9871	-1.558	-2.033	-2.5163	-2.9965	-3.5789	-4.1414	-4.6763	-5.2064	-6.4047	-6.6713	-7.7162	-9.231	-10.2046	-11.3081	-12.5119	-13.7748	-15.097	-16.4503	-17.7957	-19.1278	-20.4594	-21.7983	-23.1517	-24.5252	-25.9192	-27.3286	-28.7345	-30.1053	-31.412	-32.6591	-33.9	-35.1758	-36.538	-38.0725	-39.6579
42.4649	42.2984	41.5872	40.473	39.0972	37.6014	36.1272	34.8159	33.75	32.8611	32.0576	31.2481	30.3842	29.4872	28.5846	27.7035	26.8565	26.0392	25.2464	24.4729	23.7134	22.9567	22.1846	21.3792	20.5778	19.9054	19.274	18.5546	17.8031	17.0436	16.2634	15.4177	14.567	13.8016	13.1112	12.4254	11.6758	10.8598	10.0193	9.1542	8.3108	7.5817	7.0334	6.6984	6.4611	6.3719	6.5019	6.7526	7.1309	7.4938	7.7852	8.1195	8.6542	9.2065	9.878	10.6914	11.5893	12.514	13.4184	14.3003	15.1695	16.0361	16.9101	17.8015	18.7204	19.6724	20.6424	21.6084	22.5486	23.441	24.2639	24.9999	25.6663	26.2962	26.9224	27.5749	28.0855	28.3498	28.5749	28.848	29.1464	29.3717	29.3463	29.0452	28.7097	28.5266	28.5227	28.5813	28.2922	27.3993	26.1966	25.0483	24.0393	23.0295	21.9941	20.9578	19.9317	18.8978	17.8349	16.7294	15.5799	14.3857	13.1493	11.895	10.6543	9.4425	8.2704	7.1462	6.0759	5.0654	4.1171	3.2299	2.4006	1.6182	0.8697	0.1481	-0.544	-1.1971	-1.7861	-2.2976	-2.7676	-3.2439	-3.7954	-4.3386	-4.8614	-5.5426	-6.9024	-6.5663	-8.4661	-9.6842	-10.7075	-11.9312	-13.2176	-14.5457	-15.9577	-17.4116	-18.8686	-20.33	-21.7991	-23.2787	-24.7681	-26.2622	-27.7558	-29.2347	-30.6741	-32.0596	-33.4395	-34.8831	-36.4595	-38.2318	-39.6474
[END]